TITLE	
DATA TYPE	
ORIGIN	JASCO
OWNER	
DATE	17/04/14
TIME	12:53:00
SPECTROMETER/DATA SYSTEM	JASCO Corp., V-770, Rev. 1.00
RESOLUTION	
DELTAX	-1
XUNITS	NANOMETERS
YUNITS	TRANSMITTANCE
FIRSTX	2700
LASTX	900
NPOINTS	1801
FIRSTY	48.8397
MAXY	52.4296
MINY	23.9262
XYDATA
2700	48.8397
2699	48.6456
2698	48.4467
2697	48.3889
2696	47.9325
2695	47.7916
2694	47.9942
2693	47.8529
2692	47.5957
2691	47.7566
2690	47.5205
2689	47.538
2688	47.4798
2687	47.6706
2686	47.7154
2685	47.5497
2684	47.616
2683	47.5581
2682	47.5948
2681	47.6309
2680	47.5945
2679	47.592
2678	47.7769
2677	47.7302
2676	47.6499
2675	47.4709
2674	47.4772
2673	47.4888
2672	47.4892
2671	47.4847
2670	47.7458
2669	47.6541
2668	47.6938
2667	47.5845
2666	47.5323
2665	47.388
2664	47.3415
2663	47.4015
2662	47.4115
2661	47.4357
2660	47.48
2659	47.5214
2658	47.5081
2657	47.5119
2656	47.5752
2655	47.5601
2654	47.6171
2653	47.5751
2652	47.595
2651	47.5966
2650	47.5528
2649	47.5839
2648	47.6103
2647	47.6683
2646	47.717
2645	47.7133
2644	47.7048
2643	47.6649
2642	47.6458
2641	47.5869
2640	47.6127
2639	47.6395
2638	47.7842
2637	47.7966
2636	47.8592
2635	47.923
2634	47.9341
2633	47.9001
2632	47.8765
2631	47.8475
2630	47.7793
2629	47.7117
2628	47.6836
2627	47.6282
2626	47.628
2625	47.6765
2624	47.7391
2623	47.8027
2622	47.8828
2621	48.0035
2620	48.0295
2619	48.0286
2618	47.9438
2617	47.88
2616	47.6885
2615	47.6775
2614	47.6904
2613	47.7823
2612	47.865
2611	47.8811
2610	47.9774
2609	47.9834
2608	48.0042
2607	47.9381
2606	47.9977
2605	48.0062
2604	47.8627
2603	47.813
2602	47.7421
2601	47.7688
2600	47.8508
2599	47.9756
2598	48.0261
2597	48.1329
2596	48.1155
2595	48.1096
2594	47.9932
2593	47.9036
2592	47.87
2591	47.8198
2590	47.8747
2589	47.9401
2588	48.1231
2587	48.1386
2586	48.1028
2585	48.0594
2584	47.9379
2583	47.9273
2582	47.9016
2581	47.9843
2580	47.9957
2579	47.9858
2578	48.0057
2577	48.0643
2576	48.0539
2575	48.0319
2574	48.0938
2573	48.0693
2572	48.1141
2571	48.0096
2570	48.0352
2569	48.0677
2568	48.0949
2567	48.1286
2566	48.1645
2565	48.2247
2564	48.2593
2563	48.139
2562	48.1578
2561	48.0584
2560	47.9807
2559	47.9487
2558	47.9978
2557	48.0543
2556	48.1339
2555	48.1918
2554	48.2166
2553	48.2221
2552	48.2653
2551	48.2275
2550	48.1901
2549	48.1954
2548	48.2006
2547	48.1881
2546	48.1604
2545	48.1983
2544	48.189
2543	48.1637
2542	48.2022
2541	48.2203
2540	48.2197
2539	48.2254
2538	48.247
2537	48.2571
2536	48.2968
2535	48.2965
2534	48.2563
2533	48.2461
2532	48.2551
2531	48.2628
2530	48.2666
2529	48.2711
2528	48.2843
2527	48.2534
2526	48.2752
2525	48.2925
2524	48.2972
2523	48.3098
2522	48.3323
2521	48.3541
2520	48.334
2519	48.3377
2518	48.3192
2517	48.3326
2516	48.3413
2515	48.3858
2514	48.3448
2513	48.3789
2512	48.3528
2511	48.3531
2510	48.3577
2509	48.3735
2508	48.3921
2507	48.4215
2506	48.3992
2505	48.4165
2504	48.4148
2503	48.3838
2502	48.3845
2501	48.4199
2500	48.413
2499	48.4428
2498	48.4389
2497	48.4538
2496	48.422
2495	48.4213
2494	48.3904
2493	48.4312
2492	48.4443
2491	48.4732
2490	48.4424
2489	48.4454
2488	48.4661
2487	48.4644
2486	48.4586
2485	48.4645
2484	48.4679
2483	48.4748
2482	48.4895
2481	48.4996
2480	48.4896
2479	48.478
2478	48.4725
2477	48.5207
2476	48.5074
2475	48.5091
2474	48.5235
2473	48.511
2472	48.5051
2471	48.5351
2470	48.5138
2469	48.5358
2468	48.5368
2467	48.5112
2466	48.5499
2465	48.5439
2464	48.5406
2463	48.5435
2462	48.5675
2461	48.5496
2460	48.5549
2459	48.5737
2458	48.5505
2457	48.5593
2456	48.5621
2455	48.5796
2454	48.569
2453	48.5668
2452	48.5729
2451	48.5834
2450	48.57
2449	48.5725
2448	48.5742
2447	48.5753
2446	48.5907
2445	48.6017
2444	48.6023
2443	48.5794
2442	48.6066
2441	48.6019
2440	48.6151
2439	48.6295
2438	48.604
2437	48.6078
2436	48.6096
2435	48.6152
2434	48.6009
2433	48.6159
2432	48.6046
2431	48.5903
2430	48.6369
2429	48.6352
2428	48.6029
2427	48.6323
2426	48.6318
2425	48.6552
2424	48.658
2423	48.6484
2422	48.6345
2421	48.6524
2420	48.6357
2419	48.6397
2418	48.6689
2417	48.6598
2416	48.6678
2415	48.6663
2414	48.6721
2413	48.6613
2412	48.6603
2411	48.6511
2410	48.6651
2409	48.6669
2408	48.6887
2407	48.6925
2406	48.6733
2405	48.6839
2404	48.6738
2403	48.6832
2402	48.6802
2401	48.6809
2400	48.7074
2399	48.6996
2398	48.6948
2397	48.6895
2396	48.678
2395	48.6906
2394	48.7046
2393	48.6901
2392	48.6978
2391	48.7153
2390	48.7035
2389	48.7245
2388	48.7043
2387	48.6969
2386	48.7106
2385	48.7127
2384	48.7278
2383	48.7241
2382	48.7228
2381	48.707
2380	48.6974
2379	48.6951
2378	48.7211
2377	48.7143
2376	48.7321
2375	48.7169
2374	48.7289
2373	48.7317
2372	48.7072
2371	48.7133
2370	48.7136
2369	48.7373
2368	48.7397
2367	48.7359
2366	48.7462
2365	48.7384
2364	48.7269
2363	48.729
2362	48.7436
2361	48.7652
2360	48.7538
2359	48.7436
2358	48.761
2357	48.7462
2356	48.7378
2355	48.7599
2354	48.7534
2353	48.7578
2352	48.7823
2351	48.7588
2350	48.7742
2349	48.7629
2348	48.7495
2347	48.7613
2346	48.7535
2345	48.7831
2344	48.7738
2343	48.7878
2342	48.781
2341	48.7641
2340	48.7737
2339	48.7712
2338	48.761
2337	48.7597
2336	48.7686
2335	48.7876
2334	48.7863
2333	48.7837
2332	48.7726
2331	48.7757
2330	48.7658
2329	48.8017
2328	48.8015
2327	48.8084
2326	48.8052
2325	48.8003
2324	48.7908
2323	48.7981
2322	48.806
2321	48.7934
2320	48.8096
2319	48.811
2318	48.8239
2317	48.824
2316	48.8005
2315	48.8245
2314	48.7979
2313	48.8181
2312	48.8062
2311	48.8151
2310	48.8225
2309	48.8504
2308	48.841
2307	48.8413
2306	48.8391
2305	48.8454
2304	48.8546
2303	48.8503
2302	48.836
2301	48.8444
2300	48.8435
2299	48.8411
2298	48.8548
2297	48.8657
2296	48.8621
2295	48.85
2294	48.8564
2293	48.8716
2292	48.8554
2291	48.8668
2290	48.8655
2289	48.8546
2288	48.8692
2287	48.8792
2286	48.8605
2285	48.8672
2284	48.8787
2283	48.8793
2282	48.8742
2281	48.8716
2280	48.8763
2279	48.8795
2278	48.8889
2277	48.9026
2276	48.9103
2275	48.8924
2274	48.8946
2273	48.8854
2272	48.9028
2271	48.9246
2270	48.8973
2269	48.9054
2268	48.8982
2267	48.9196
2266	48.9138
2265	48.9118
2264	48.9267
2263	48.9183
2262	48.9339
2261	48.9186
2260	48.9237
2259	48.9465
2258	48.9286
2257	48.9378
2256	48.964
2255	48.9624
2254	48.9683
2253	48.9447
2252	48.9598
2251	48.943
2250	48.9568
2249	48.9695
2248	48.9633
2247	48.9823
2246	48.9961
2245	48.9951
2244	48.9784
2243	48.9911
2242	49.0101
2241	49.0053
2240	49.0014
2239	49.0197
2238	49.0236
2237	49.0364
2236	49.0364
2235	49.0241
2234	49.0328
2233	49.0298
2232	49.0482
2231	49.0398
2230	49.0449
2229	49.0434
2228	49.0561
2227	49.0703
2226	49.0648
2225	49.0693
2224	49.0731
2223	49.0699
2222	49.0955
2221	49.1008
2220	49.0983
2219	49.0907
2218	49.1015
2217	49.1031
2216	49.1129
2215	49.1242
2214	49.1235
2213	49.1426
2212	49.1363
2211	49.1523
2210	49.1501
2209	49.1661
2208	49.1568
2207	49.1506
2206	49.1505
2205	49.152
2204	49.1601
2203	49.1655
2202	49.1723
2201	49.1746
2200	49.1713
2199	49.1719
2198	49.1837
2197	49.1912
2196	49.1984
2195	49.2141
2194	49.2102
2193	49.2181
2192	49.2108
2191	49.2066
2190	49.2083
2189	49.22
2188	49.2176
2187	49.2502
2186	49.2436
2185	49.2632
2184	49.253
2183	49.2575
2182	49.2807
2181	49.277
2180	49.2773
2179	49.2738
2178	49.2845
2177	49.3159
2176	49.2913
2175	49.3166
2174	49.3133
2173	49.3351
2172	49.3286
2171	49.3398
2170	49.3503
2169	49.3556
2168	49.3451
2167	49.3501
2166	49.3528
2165	49.3634
2164	49.3682
2163	49.3947
2162	49.4161
2161	49.407
2160	49.4136
2159	49.4165
2158	49.4003
2157	49.4209
2156	49.4245
2155	49.4348
2154	49.4607
2153	49.4477
2152	49.4591
2151	49.4687
2150	49.4658
2149	49.4667
2148	49.4874
2147	49.4999
2146	49.5017
2145	49.5158
2144	49.5177
2143	49.5145
2142	49.5237
2141	49.5251
2140	49.5322
2139	49.5349
2138	49.5544
2137	49.5661
2136	49.5576
2135	49.5948
2134	49.5841
2133	49.5974
2132	49.5999
2131	49.5931
2130	49.611
2129	49.5983
2128	49.6209
2127	49.6377
2126	49.6483
2125	49.6458
2124	49.65
2123	49.6649
2122	49.6525
2121	49.6827
2120	49.6704
2119	49.6764
2118	49.6815
2117	49.6907
2116	49.7154
2115	49.7096
2114	49.7178
2113	49.7231
2112	49.7159
2111	49.7308
2110	49.751
2109	49.7716
2108	49.7666
2107	49.7702
2106	49.7886
2105	49.7846
2104	49.7914
2103	49.8016
2102	49.8062
2101	49.8184
2100	49.8369
2099	49.8362
2098	49.8185
2097	49.8387
2096	49.839
2095	49.8591
2094	49.8741
2093	49.889
2092	49.8931
2091	49.9071
2090	49.8963
2089	49.8993
2088	49.8996
2087	49.9118
2086	49.9153
2085	49.9224
2084	49.9322
2083	49.9315
2082	49.9571
2081	49.9485
2080	49.9697
2079	49.9764
2078	49.9791
2077	49.9813
2076	49.9944
2075	49.9764
2074	50.0015
2073	50.0222
2072	50.026
2071	50.0307
2070	50.0273
2069	50.0447
2068	50.0314
2067	50.0572
2066	50.0809
2065	50.0562
2064	50.0804
2063	50.08
2062	50.091
2061	50.0929
2060	50.0779
2059	50.0911
2058	50.1042
2057	50.1306
2056	50.1395
2055	50.1443
2054	50.1586
2053	50.1538
2052	50.1539
2051	50.1654
2050	50.1736
2049	50.1777
2048	50.183
2047	50.2011
2046	50.2077
2045	50.2051
2044	50.2055
2043	50.2188
2042	50.2181
2041	50.2372
2040	50.2514
2039	50.2394
2038	50.2607
2037	50.2711
2036	50.2655
2035	50.2593
2034	50.2852
2033	50.2937
2032	50.2887
2031	50.2813
2030	50.3015
2029	50.312
2028	50.3091
2027	50.3178
2026	50.336
2025	50.342
2024	50.3402
2023	50.3322
2022	50.3406
2021	50.3562
2020	50.3614
2019	50.3755
2018	50.3618
2017	50.3746
2016	50.3725
2015	50.3761
2014	50.3841
2013	50.3925
2012	50.4037
2011	50.413
2010	50.4165
2009	50.4138
2008	50.4078
2007	50.4237
2006	50.4304
2005	50.4256
2004	50.4409
2003	50.453
2002	50.4533
2001	50.459
2000	50.4815
1999	50.4724
1998	50.4708
1997	50.4907
1996	50.4784
1995	50.4905
1994	50.4889
1993	50.4724
1992	50.4969
1991	50.501
1990	50.5042
1989	50.4929
1988	50.4986
1987	50.517
1986	50.5237
1985	50.5328
1984	50.5329
1983	50.5405
1982	50.5508
1981	50.5347
1980	50.5438
1979	50.5361
1978	50.5432
1977	50.5392
1976	50.5546
1975	50.5695
1974	50.572
1973	50.5824
1972	50.5845
1971	50.5676
1970	50.5625
1969	50.5724
1968	50.5892
1967	50.5797
1966	50.5918
1965	50.5783
1964	50.5817
1963	50.5909
1962	50.5876
1961	50.5835
1960	50.5801
1959	50.5729
1958	50.6114
1957	50.61
1956	50.5959
1955	50.6134
1954	50.6088
1953	50.6176
1952	50.6163
1951	50.606
1950	50.5984
1949	50.6199
1948	50.603
1947	50.6083
1946	50.6281
1945	50.6109
1944	50.6201
1943	50.616
1942	50.6166
1941	50.6076
1940	50.6079
1939	50.6147
1938	50.6223
1937	50.6192
1936	50.6245
1935	50.6038
1934	50.6037
1933	50.5931
1932	50.6137
1931	50.5975
1930	50.627
1929	50.614
1928	50.6089
1927	50.6095
1926	50.6104
1925	50.5999
1924	50.6025
1923	50.5948
1922	50.594
1921	50.5923
1920	50.5967
1919	50.5909
1918	50.5619
1917	50.5734
1916	50.5658
1915	50.5726
1914	50.5646
1913	50.5794
1912	50.5714
1911	50.5686
1910	50.5672
1909	50.5714
1908	50.5772
1907	50.5561
1906	50.5538
1905	50.5482
1904	50.5626
1903	50.5298
1902	50.5298
1901	50.5248
1900	50.4519
1899	50.4649
1898	50.4751
1897	50.4808
1896	50.4777
1895	50.4566
1894	50.4719
1893	50.4729
1892	50.4658
1891	50.4578
1890	50.4542
1889	50.448
1888	50.4355
1887	50.4383
1886	50.4374
1885	50.4313
1884	50.433
1883	50.4377
1882	50.4277
1881	50.4097
1880	50.4178
1879	50.4083
1878	50.4208
1877	50.4082
1876	50.4226
1875	50.4062
1874	50.3872
1873	50.3802
1872	50.3602
1871	50.3515
1870	50.3392
1869	50.3489
1868	50.324
1867	50.3303
1866	50.3598
1865	50.3462
1864	50.3531
1863	50.3673
1862	50.3501
1861	50.3545
1860	50.3405
1859	50.3402
1858	50.3422
1857	50.3196
1856	50.3274
1855	50.2929
1854	50.3178
1853	50.3195
1852	50.3091
1851	50.309
1850	50.3023
1849	50.2915
1848	50.2871
1847	50.3005
1846	50.2904
1845	50.289
1844	50.275
1843	50.2803
1842	50.2855
1841	50.2982
1840	50.2754
1839	50.2473
1838	50.2326
1837	50.213
1836	50.237
1835	50.2506
1834	50.2372
1833	50.2418
1832	50.2372
1831	50.2355
1830	50.2376
1829	50.2221
1828	50.2051
1827	50.2076
1826	50.2261
1825	50.2176
1824	50.228
1823	50.2276
1822	50.2146
1821	50.2138
1820	50.2083
1819	50.202
1818	50.1945
1817	50.1906
1816	50.215
1815	50.1984
1814	50.1719
1813	50.1753
1812	50.1683
1811	50.1571
1810	50.1507
1809	50.1528
1808	50.1465
1807	50.1472
1806	50.1497
1805	50.1562
1804	50.1425
1803	50.1286
1802	50.1421
1801	50.1251
1800	50.1188
1799	50.1163
1798	50.1242
1797	50.1048
1796	50.1015
1795	50.1104
1794	50.1094
1793	50.1152
1792	50.1018
1791	50.1048
1790	50.1114
1789	50.099
1788	50.1008
1787	50.0845
1786	50.0691
1785	50.0789
1784	50.0966
1783	50.0789
1782	50.0698
1781	50.0682
1780	50.0689
1779	50.066
1778	50.0647
1777	50.0626
1776	50.0619
1775	50.0435
1774	50.0533
1773	50.0372
1772	50.0297
1771	50.0373
1770	50.0372
1769	50.0215
1768	50.0376
1767	50.0243
1766	50.0296
1765	50.0225
1764	50.0261
1763	50.0218
1762	50.0226
1761	50.0108
1760	50.0073
1759	50.0086
1758	49.9958
1757	50.0042
1756	50.0084
1755	49.9919
1754	49.9906
1753	50.0158
1752	50.0017
1751	50.0174
1750	49.9925
1749	50.0155
1748	50.0141
1747	50.0023
1746	50.005
1745	50.0197
1744	50.0075
1743	50.0175
1742	50.0119
1741	50.0326
1740	50.0216
1739	50.0466
1738	50.0328
1737	50.0359
1736	50.0577
1735	50.0666
1734	50.0887
1733	50.0961
1732	50.0953
1731	50.1174
1730	50.1292
1729	50.1462
1728	50.1438
1727	50.1746
1726	50.1754
1725	50.1844
1724	50.2111
1723	50.2241
1722	50.242
1721	50.2597
1720	50.2795
1719	50.3092
1718	50.3258
1717	50.3541
1716	50.3745
1715	50.3856
1714	50.408
1713	50.4335
1712	50.4519
1711	50.4643
1710	50.484
1709	50.5097
1708	50.5308
1707	50.5424
1706	50.5658
1705	50.5711
1704	50.591
1703	50.6197
1702	50.6386
1701	50.647
1700	50.678
1699	50.6853
1698	50.6885
1697	50.7067
1696	50.7274
1695	50.7248
1694	50.7352
1693	50.7219
1692	50.7327
1691	50.7298
1690	50.7163
1689	50.7189
1688	50.7206
1687	50.7215
1686	50.7227
1685	50.7172
1684	50.7285
1683	50.7257
1682	50.706
1681	50.7219
1680	50.7024
1679	50.7073
1678	50.7098
1677	50.7031
1676	50.7155
1675	50.7103
1674	50.7171
1673	50.7032
1672	50.7131
1671	50.7078
1670	50.71
1669	50.7066
1668	50.7098
1667	50.7106
1666	50.7083
1665	50.7158
1664	50.7185
1663	50.701
1662	50.7213
1661	50.7312
1660	50.7408
1659	50.7712
1658	50.7931
1657	50.8132
1656	50.8273
1655	50.8542
1654	50.8633
1653	50.8901
1652	50.8737
1651	50.8858
1650	50.9084
1649	50.9095
1648	50.9182
1647	50.9103
1646	50.9315
1645	50.9077
1644	50.9167
1643	50.9206
1642	50.9317
1641	50.9334
1640	50.9498
1639	50.9467
1638	50.9436
1637	50.9487
1636	50.9515
1635	50.9575
1634	50.9443
1633	50.9436
1632	50.9317
1631	50.9703
1630	50.9624
1629	50.9766
1628	50.9715
1627	50.9896
1626	50.9773
1625	50.9889
1624	50.9796
1623	50.984
1622	50.9885
1621	51
1620	50.9959
1619	50.9884
1618	50.9954
1617	51.0014
1616	50.9967
1615	51.0032
1614	51.0012
1613	50.9968
1612	51.0161
1611	51.0086
1610	51.0187
1609	51.0052
1608	51.0049
1607	51.012
1606	51.0027
1605	50.9845
1604	50.9901
1603	51.0009
1602	50.9894
1601	51.0065
1600	50.9976
1599	50.9881
1598	50.9941
1597	50.9861
1596	50.9873
1595	50.9935
1594	50.9856
1593	50.9952
1592	51.0006
1591	51.0023
1590	51.0025
1589	50.9897
1588	51.0026
1587	50.9921
1586	51.0083
1585	50.9861
1584	50.9928
1583	50.9931
1582	50.9751
1581	50.9703
1580	50.9713
1579	50.9852
1578	50.9791
1577	50.9765
1576	50.9772
1575	50.9557
1574	50.9653
1573	50.9549
1572	50.9483
1571	50.9508
1570	50.9636
1569	50.9674
1568	50.9575
1567	50.9522
1566	50.9346
1565	50.9402
1564	50.9229
1563	50.9485
1562	50.9312
1561	50.9376
1560	50.9384
1559	50.9385
1558	50.935
1557	50.9223
1556	50.924
1555	50.9217
1554	50.9034
1553	50.9174
1552	50.9143
1551	50.9058
1550	50.8923
1549	50.8956
1548	50.8796
1547	50.8847
1546	50.8738
1545	50.8863
1544	50.8854
1543	50.8743
1542	50.8564
1541	50.8773
1540	50.8677
1539	50.8613
1538	50.864
1537	50.8432
1536	50.8333
1535	50.8276
1534	50.8441
1533	50.8384
1532	50.8419
1531	50.8311
1530	50.8251
1529	50.8231
1528	50.816
1527	50.8348
1526	50.8183
1525	50.8267
1524	50.8082
1523	50.815
1522	50.8183
1521	50.8213
1520	50.8127
1519	50.8017
1518	50.8164
1517	50.8035
1516	50.7976
1515	50.7997
1514	50.7994
1513	50.7876
1512	50.7904
1511	50.791
1510	50.782
1509	50.7772
1508	50.7788
1507	50.7852
1506	50.7751
1505	50.7724
1504	50.7561
1503	50.7776
1502	50.7605
1501	50.7668
1500	50.7507
1499	50.7628
1498	50.7452
1497	50.7548
1496	50.7554
1495	50.7467
1494	50.7629
1493	50.7491
1492	50.7617
1491	50.7595
1490	50.7424
1489	50.7586
1488	50.7457
1487	50.743
1486	50.7538
1485	50.7501
1484	50.7502
1483	50.7423
1482	50.7504
1481	50.7566
1480	50.748
1479	50.7591
1478	50.7597
1477	50.7523
1476	50.7707
1475	50.7567
1474	50.7669
1473	50.759
1472	50.7687
1471	50.7624
1470	50.7717
1469	50.7536
1468	50.7557
1467	50.7751
1466	50.7648
1465	50.7525
1464	50.7802
1463	50.7633
1462	50.7818
1461	50.7719
1460	50.7857
1459	50.7613
1458	50.7927
1457	50.7809
1456	50.7843
1455	50.7913
1454	50.7904
1453	50.8016
1452	50.7862
1451	50.7913
1450	50.8026
1449	50.7893
1448	50.7995
1447	50.8204
1446	50.8127
1445	50.8178
1444	50.8294
1443	50.8233
1442	50.8173
1441	50.8323
1440	50.824
1439	50.8534
1438	50.8458
1437	50.865
1436	50.857
1435	50.8465
1434	50.8569
1433	50.8532
1432	50.8793
1431	50.8782
1430	50.8765
1429	50.9016
1428	50.8986
1427	50.9021
1426	50.9034
1425	50.9148
1424	50.9119
1423	50.9246
1422	50.9227
1421	50.9529
1420	50.9375
1419	50.9557
1418	50.9451
1417	50.9561
1416	50.9654
1415	50.9671
1414	50.9808
1413	50.9843
1412	51.0012
1411	51.0025
1410	51.0223
1409	51.0198
1408	51.0135
1407	51.0179
1406	51.0283
1405	51.0349
1404	51.0382
1403	51.0565
1402	51.0656
1401	51.063
1400	51.0796
1399	51.074
1398	51.0845
1397	51.0878
1396	51.0968
1395	51.1065
1394	51.0904
1393	51.1153
1392	51.1157
1391	51.1276
1390	51.1468
1389	51.1737
1388	51.1731
1387	51.1975
1386	51.2159
1385	51.2126
1384	51.2067
1383	51.1982
1382	51.1956
1381	51.1839
1380	51.1878
1379	51.2031
1378	51.2031
1377	51.2134
1376	51.2301
1375	51.2518
1374	51.2659
1373	51.2699
1372	51.2692
1371	51.2897
1370	51.2853
1369	51.2975
1368	51.312
1367	51.2999
1366	51.3242
1365	51.3348
1364	51.3102
1363	51.3352
1362	51.3309
1361	51.328
1360	51.3236
1359	51.3294
1358	51.3321
1357	51.3358
1356	51.345
1355	51.3451
1354	51.355
1353	51.3456
1352	51.3547
1351	51.3831
1350	51.3732
1349	51.3733
1348	51.3923
1347	51.3829
1346	51.3909
1345	51.4067
1344	51.4201
1343	51.4178
1342	51.4211
1341	51.4197
1340	51.4262
1339	51.4406
1338	51.4357
1337	51.4437
1336	51.4565
1335	51.4615
1334	51.4692
1333	51.4511
1332	51.4585
1331	51.4802
1330	51.4876
1329	51.4749
1328	51.4858
1327	51.5089
1326	51.4923
1325	51.4948
1324	51.489
1323	51.4934
1322	51.5056
1321	51.5048
1320	51.5051
1319	51.502
1318	51.498
1317	51.5104
1316	51.5128
1315	51.5114
1314	51.5068
1313	51.5207
1312	51.5124
1311	51.5037
1310	51.5105
1309	51.5114
1308	51.5151
1307	51.5175
1306	51.5129
1305	51.5171
1304	51.5155
1303	51.5106
1302	51.522
1301	51.5136
1300	51.5179
1299	51.5208
1298	51.5169
1297	51.5137
1296	51.5189
1295	51.5005
1294	51.5247
1293	51.5108
1292	51.5203
1291	51.5047
1290	51.5054
1289	51.4933
1288	51.5052
1287	51.5008
1286	51.4954
1285	51.4964
1284	51.5112
1283	51.4855
1282	51.4907
1281	51.4857
1280	51.4793
1279	51.493
1278	51.4903
1277	51.4982
1276	51.4946
1275	51.4893
1274	51.4904
1273	51.4805
1272	51.4836
1271	51.4872
1270	51.4962
1269	51.4795
1268	51.4817
1267	51.4796
1266	51.4762
1265	51.4834
1264	51.4928
1263	51.4871
1262	51.4854
1261	51.4878
1260	51.4845
1259	51.478
1258	51.4852
1257	51.4843
1256	51.4982
1255	51.4962
1254	51.4935
1253	51.5108
1252	51.4935
1251	51.4942
1250	51.5066
1249	51.5088
1248	51.5211
1247	51.516
1246	51.532
1245	51.5147
1244	51.5294
1243	51.5277
1242	51.5391
1241	51.5416
1240	51.5484
1239	51.5605
1238	51.5563
1237	51.5661
1236	51.5814
1235	51.5795
1234	51.6002
1233	51.6093
1232	51.5974
1231	51.5983
1230	51.6146
1229	51.6142
1228	51.623
1227	51.6424
1226	51.6513
1225	51.6582
1224	51.6647
1223	51.6707
1222	51.6726
1221	51.702
1220	51.6994
1219	51.7266
1218	51.7394
1217	51.7397
1216	51.7608
1215	51.7562
1214	51.7659
1213	51.7728
1212	51.8026
1211	51.8149
1210	51.8362
1209	51.8358
1208	51.855
1207	51.8633
1206	51.8775
1205	51.8916
1204	51.9211
1203	51.9333
1202	51.9532
1201	51.971
1200	52.1176
1199	52.1486
1198	52.1705
1197	52.1845
1196	52.2117
1195	52.2382
1194	52.2547
1193	52.2753
1192	52.2974
1191	52.3358
1190	52.3445
1189	52.3643
1188	52.3759
1187	52.3714
1186	52.3895
1185	52.401
1184	52.3974
1183	52.4296
1182	52.4274
1181	52.4293
1180	52.4176
1179	52.42
1178	52.409
1177	52.4079
1176	52.4031
1175	52.4011
1174	52.3626
1173	52.3832
1172	52.3529
1171	52.3442
1170	52.3221
1169	52.3029
1168	52.3073
1167	52.2768
1166	52.269
1165	52.2371
1164	52.2208
1163	52.2077
1162	52.1699
1161	52.1634
1160	52.1469
1159	52.1146
1158	52.0859
1157	52.0634
1156	52.0258
1155	51.9968
1154	51.956
1153	51.9406
1152	51.8967
1151	51.8565
1150	51.8244
1149	51.7707
1148	51.746
1147	51.6902
1146	51.6489
1145	51.6066
1144	51.5603
1143	51.5182
1142	51.4718
1141	51.4199
1140	51.3853
1139	51.3294
1138	51.2548
1137	51.2002
1136	51.1312
1135	51.0615
1134	51.0141
1133	50.9432
1132	50.89
1131	50.8255
1130	50.7504
1129	50.6833
1128	50.6075
1127	50.5394
1126	50.4594
1125	50.3833
1124	50.3019
1123	50.2261
1122	50.1542
1121	50.054
1120	49.9754
1119	49.8919
1118	49.8066
1117	49.7016
1116	49.6036
1115	49.5221
1114	49.4351
1113	49.3445
1112	49.2468
1111	49.1339
1110	49.0386
1109	48.9144
1108	48.8102
1107	48.7159
1106	48.6034
1105	48.472
1104	48.3659
1103	48.2474
1102	48.1303
1101	48.0004
1100	47.8879
1099	47.7623
1098	47.6299
1097	47.5006
1096	47.3517
1095	47.217
1094	47.0731
1093	46.9306
1092	46.7849
1091	46.6292
1090	46.4954
1089	46.3189
1088	46.1644
1087	46.0176
1086	45.8326
1085	45.6777
1084	45.5223
1083	45.3394
1082	45.1686
1081	44.988
1080	44.8124
1079	44.6171
1078	44.4308
1077	44.2224
1076	44.0409
1075	43.8415
1074	43.6396
1073	43.4228
1072	43.2208
1071	43.0115
1070	42.8039
1069	42.5717
1068	42.3433
1067	42.1017
1066	41.8517
1065	41.5664
1064	41.2854
1063	41.0054
1062	40.6695
1061	40.336
1060	39.981
1059	39.6256
1058	39.2605
1057	38.9024
1056	38.5593
1055	38.1861
1054	37.8501
1053	37.5033
1052	37.136
1051	36.7917
1050	36.4751
1049	36.1148
1048	35.7596
1047	35.4166
1046	35.0788
1045	34.7251
1044	34.4167
1043	34.0684
1042	33.737
1041	33.4034
1040	33.1097
1039	32.7825
1038	32.4667
1037	32.1401
1036	31.8734
1035	31.5627
1034	31.2738
1033	31.0069
1032	30.7408
1031	30.4712
1030	30.2202
1029	29.9525
1028	29.7048
1027	29.4731
1026	29.2579
1025	29.0102
1024	28.8036
1023	28.6015
1022	28.3859
1021	28.1748
1020	27.997
1019	27.8005
1018	27.633
1017	27.4516
1016	27.294
1015	27.1488
1014	26.9844
1013	26.8247
1012	26.6802
1011	26.539
1010	26.4149
1009	26.2682
1008	26.1435
1007	26.0231
1006	25.9147
1005	25.8179
1004	25.6975
1003	25.6111
1002	25.5207
1001	25.4311
1000	25.3367
999	25.2444
998	25.195
997	25.1024
996	25.0289
995	24.9576
994	24.9
993	24.835
992	24.7862
991	24.7243
990	24.6774
989	24.615
988	24.5745
987	24.5289
986	24.4854
985	24.4356
984	24.401
983	24.3578
982	24.3343
981	24.2999
980	24.2615
979	24.227
978	24.207
977	24.1828
976	24.1568
975	24.1329
974	24.0934
973	24.088
972	24.062
971	24.062
970	24.0304
969	24.0225
968	24.0155
967	23.9962
966	23.9831
965	23.9764
964	23.9637
963	23.9627
962	23.9637
961	23.9527
960	23.9333
959	23.9531
958	23.9462
957	23.9612
956	23.9375
955	23.933
954	23.9573
953	23.9262
952	23.9544
951	23.9636
950	23.9604
949	23.9781
948	23.9773
947	23.9834
946	24.0082
945	24.0106
944	24.0143
943	24.0304
942	24.0243
941	24.0568
940	24.0738
939	24.0746
938	24.0826
937	24.1099
936	24.1087
935	24.1175
934	24.1132
933	24.1517
932	24.172
931	24.1674
930	24.1899
929	24.2034
928	24.2387
927	24.2437
926	24.2374
925	24.2607
924	24.2817
923	24.2903
922	24.3102
921	24.3307
920	24.333
919	24.3423
918	24.3639
917	24.3595
916	24.3656
915	24.3864
914	24.388
913	24.4245
912	24.4064
911	24.4411
910	24.4487
909	24.4495
908	24.4541
907	24.4362
906	24.4587
905	24.4674
904	24.4804
903	24.4626
902	24.479
901	24.4705
900	24.4735



[コメント情報]
試料名	S DOPE 16
オペレーター	
所属	
コメント	

[データ情報]
作成日時	2017/04/14 12:53
スタート	2700 nm
エンド	900 nm
データ間隔	1 nm
データ数	1801    

[測定情報]
機種名	V-770
シリアル番号	A034761801
測光モード	%T
UV/Vis バンド幅	2 nm
NIR バンド幅	8 nm
レスポンス	Quick
走査速度	200 nm/min
光源	自動
光源切換	340 nm
回折格子切換	850 nm

[付属品情報]
付属品名	USE-753
シリアル番号	A034761801
