TITLE	
DATA TYPE	
ORIGIN	JASCO
OWNER	
DATE	17/09/26
TIME	16:16:00
SPECTROMETER/DATA SYSTEM	JASCO Corp., V-770, Rev. 1.00
RESOLUTION	
DELTAX	-1
XUNITS	NANOMETERS
YUNITS	TRANSMITTANCE
FIRSTX	1500
LASTX	700
NPOINTS	801
FIRSTY	7.35914
MAXY	7.37756
MINY	-0.268301
XYDATA
1500	7.35914
1499	7.37756
1498	7.34515
1497	7.25815
1496	7.31259
1495	7.31994
1494	7.321
1493	7.35325
1492	7.33241
1491	7.37511
1490	7.33084
1489	7.32158
1488	7.28883
1487	7.27852
1486	7.32243
1485	7.33932
1484	7.35883
1483	7.36205
1482	7.32742
1481	7.28435
1480	7.31236
1479	7.32661
1478	7.37122
1477	7.30606
1476	7.36136
1475	7.32145
1474	7.31957
1473	7.25667
1472	7.2867
1471	7.26387
1470	7.30359
1469	7.31178
1468	7.31223
1467	7.35916
1466	7.3202
1465	7.33187
1464	7.33496
1463	7.24798
1462	7.26787
1461	7.27413
1460	7.3145
1459	7.31685
1458	7.29153
1457	7.30025
1456	7.32775
1455	7.25442
1454	7.26398
1453	7.34412
1452	7.36388
1451	7.28567
1450	7.29625
1449	7.22295
1448	7.29044
1447	7.2483
1446	7.28483
1445	7.29979
1444	7.35158
1443	7.31447
1442	7.30445
1441	7.28495
1440	7.29348
1439	7.27355
1438	7.18977
1437	7.27824
1436	7.32231
1435	7.32978
1434	7.3536
1433	7.36131
1432	7.25838
1431	7.24718
1430	7.28187
1429	7.25889
1428	7.30389
1427	7.31174
1426	7.29203
1425	7.25216
1424	7.28827
1423	7.27462
1422	7.26035
1421	7.31214
1420	7.2843
1419	7.30702
1418	7.33748
1417	7.2869
1416	7.28484
1415	7.29888
1414	7.2705
1413	7.2785
1412	7.30859
1411	7.3137
1410	7.33651
1409	7.27491
1408	7.29959
1407	7.31128
1406	7.26576
1405	7.25983
1404	7.26485
1403	7.29706
1402	7.3524
1401	7.30352
1400	7.24538
1399	7.19806
1398	7.23501
1397	7.306
1396	7.31276
1395	7.25955
1394	7.29507
1393	7.33139
1392	7.23235
1391	7.24749
1390	7.23381
1389	7.3162
1388	7.31774
1387	7.33448
1386	7.31685
1385	7.23625
1384	7.32057
1383	7.27817
1382	7.24418
1381	7.21657
1380	7.27412
1379	7.29877
1378	7.29669
1377	7.2676
1376	7.23606
1375	7.26429
1374	7.25126
1373	7.29115
1372	7.3318
1371	7.28222
1370	7.35799
1369	7.34141
1368	7.24472
1367	7.23632
1366	7.26144
1365	7.25382
1364	7.29082
1363	7.26799
1362	7.30638
1361	7.21078
1360	7.30876
1359	7.26683
1358	7.218
1357	7.29372
1356	7.30205
1355	7.34117
1354	7.27652
1353	7.29839
1352	7.25709
1351	7.30281
1350	7.28849
1349	7.3006
1348	7.28823
1347	7.31811
1346	7.32341
1345	7.23914
1344	7.26313
1343	7.27902
1342	7.27842
1341	7.2954
1340	7.29337
1339	7.27857
1338	7.29235
1337	7.30352
1336	7.27691
1335	7.2765
1334	7.2592
1333	7.30202
1332	7.31985
1331	7.35319
1330	7.30661
1329	7.28164
1328	7.2979
1327	7.2697
1326	7.2772
1325	7.29451
1324	7.27666
1323	7.31998
1322	7.27479
1321	7.24526
1320	7.30949
1319	7.28269
1318	7.28038
1317	7.30508
1316	7.30327
1315	7.31914
1314	7.31847
1313	7.3174
1312	7.26683
1311	7.29066
1310	7.30479
1309	7.30497
1308	7.3376
1307	7.339
1306	7.28121
1305	7.25438
1304	7.28549
1303	7.2626
1302	7.29557
1301	7.34544
1300	7.316
1299	7.30424
1298	7.2919
1297	7.23846
1296	7.28444
1295	7.29667
1294	7.33518
1293	7.29613
1292	7.2936
1291	7.31117
1290	7.27097
1289	7.2872
1288	7.34524
1287	7.31154
1286	7.29666
1285	7.33618
1284	7.32821
1283	7.30318
1282	7.26914
1281	7.34092
1280	7.30326
1279	7.31064
1278	7.31955
1277	7.30985
1276	7.27529
1275	7.28731
1274	7.28934
1273	7.30008
1272	7.35035
1271	7.30013
1270	7.36387
1269	7.32658
1268	7.28825
1267	7.32036
1266	7.29974
1265	7.32002
1264	7.29966
1263	7.29187
1262	7.30239
1261	7.30671
1260	7.26825
1259	7.26343
1258	7.32207
1257	7.29181
1256	7.32746
1255	7.30617
1254	7.26847
1253	7.29925
1252	7.27879
1251	7.31538
1250	7.29867
1249	7.34469
1248	7.28012
1247	7.32859
1246	7.27964
1245	7.25877
1244	7.26169
1243	7.27692
1242	7.2944
1241	7.26452
1240	7.32847
1239	7.25085
1238	7.25225
1237	7.27243
1236	7.22666
1235	7.26839
1234	7.28564
1233	7.28329
1232	7.29045
1231	7.30067
1230	7.24146
1229	7.25431
1228	7.22484
1227	7.24949
1226	7.23801
1225	7.28489
1224	7.28053
1223	7.20207
1222	7.25328
1221	7.25485
1220	7.22495
1219	7.24008
1218	7.25482
1217	7.27505
1216	7.27159
1215	7.29132
1214	7.19237
1213	7.25435
1212	7.23155
1211	7.20212
1210	7.27381
1209	7.24329
1208	7.2642
1207	7.23124
1206	7.23657
1205	7.21407
1204	7.23238
1203	7.2211
1202	7.23129
1201	7.22748
1200	7.24154
1199	7.2205
1198	7.18842
1197	7.22995
1196	7.22874
1195	7.24547
1194	7.27846
1193	7.22582
1192	7.26885
1191	7.20437
1190	7.19885
1189	7.17848
1188	7.22671
1187	7.24268
1186	7.22655
1185	7.21089
1184	7.18563
1183	7.17331
1182	7.22565
1181	7.23419
1180	7.2278
1179	7.2127
1178	7.22092
1177	7.21005
1176	7.19005
1175	7.18077
1174	7.10908
1173	7.16684
1172	7.17272
1171	7.14121
1170	7.14286
1169	7.14329
1168	7.15652
1167	7.06503
1166	7.00904
1165	7.10678
1164	7.06454
1163	7.10774
1162	7.12188
1161	7.07502
1160	7.11012
1159	7.02428
1158	6.99653
1157	6.9986
1156	7.01575
1155	7.01673
1154	6.99664
1153	6.99391
1152	7.02401
1151	6.9467
1150	6.90106
1149	6.8729
1148	6.88895
1147	6.9204
1146	6.89618
1145	6.88432
1144	6.9436
1143	6.8374
1142	6.81109
1141	6.76797
1140	6.75239
1139	6.72744
1138	6.7684
1137	6.74491
1136	6.769
1135	6.67605
1134	6.67075
1133	6.61485
1132	6.60331
1131	6.63481
1130	6.56338
1129	6.60074
1128	6.62826
1127	6.6241
1126	6.54901
1125	6.45703
1124	6.47081
1123	6.4291
1122	6.43533
1121	6.38967
1120	6.4121
1119	6.38913
1118	6.35974
1117	6.25227
1116	6.24459
1115	6.23847
1114	6.2149
1113	6.1854
1112	6.16041
1111	6.19664
1110	6.08757
1109	6.09825
1108	6.04763
1107	5.95191
1106	6.00319
1105	5.94269
1104	5.95106
1103	5.91813
1102	5.89741
1101	5.83848
1100	5.82812
1099	5.73184
1098	5.72074
1097	5.63256
1096	5.5796
1095	5.57479
1094	5.59577
1093	5.53377
1092	5.50206
1091	5.37461
1090	5.31895
1089	5.34327
1088	5.3176
1087	5.25908
1086	5.21564
1085	5.19457
1084	5.12719
1083	5.00434
1082	4.99904
1081	4.96875
1080	4.93186
1079	4.84837
1078	4.80911
1077	4.84992
1076	4.71358
1075	4.64117
1074	4.54048
1073	4.53546
1072	4.46756
1071	4.42766
1070	4.39242
1069	4.34448
1068	4.28025
1067	4.11158
1066	4.07715
1065	4.0433
1064	3.9633
1063	3.86154
1062	3.81309
1061	3.65857
1060	3.67307
1059	3.44904
1058	3.37184
1057	3.28984
1056	3.27086
1055	3.20267
1054	3.07574
1053	3.05125
1052	2.95347
1051	2.86294
1050	2.76812
1049	2.6154
1048	2.55384
1047	2.43823
1046	2.42404
1045	2.39052
1044	2.25549
1043	2.12624
1042	2.0425
1041	1.93025
1040	1.89765
1039	1.8879
1038	1.81278
1037	1.73312
1036	1.65968
1035	1.5915
1034	1.53208
1033	1.45762
1032	1.3164
1031	1.2686
1030	1.33592
1029	1.21625
1028	1.24287
1027	1.1044
1026	0.979934
1025	0.974621
1024	0.847851
1023	0.83056
1022	0.835152
1021	0.880852
1020	0.73061
1019	0.706888
1018	0.717673
1017	0.625993
1016	0.585042
1015	0.572246
1014	0.59542
1013	0.531039
1012	0.479265
1011	0.495266
1010	0.463043
1009	0.432222
1008	0.355544
1007	0.329818
1006	0.440704
1005	0.383644
1004	0.308231
1003	0.310343
1002	0.304253
1001	0.207145
1000	0.113937
999	0.219607
998	0.193005
997	0.231257
996	0.144474
995	0.179808
994	0.202794
993	0.138867
992	0.166031
991	0.0409663
990	0.0950793
989	0.0842821
988	0.0342526
987	0.162455
986	0.166865
985	0.101356
984	0.0636356
983	0.0609814
982	0.0695412
981	0.0586543
980	0.116908
979	0.107282
978	0.0471202
977	0.0906669
976	0.0416016
975	0.0902908
974	0.0189478
973	0.0459003
972	0.011054
971	0.044943
970	0.0448653
969	0.068885
968	0.106231
967	-0.0112346
966	-0.00197561
965	-0.0352604
964	-0.026296
963	-0.0119914
962	0.0489793
961	0.0144052
960	0.0483403
959	0.009212
958	0.111244
957	-0.0855981
956	0.00451406
955	-0.0145569
954	0.0784804
953	0.0747079
952	0.154318
951	-0.00389318
950	0.0932399
949	0.0138881
948	0.00642308
947	-0.0182526
946	0.135254
945	0.0748857
944	0.0552144
943	0.0682945
942	0.0541111
941	-0.0114925
940	-0.0208263
939	0.0817696
938	-0.0274582
937	0.00884394
936	0.0963636
935	0.0240799
934	0.0952877
933	0.17108
932	-0.0402977
931	-0.107081
930	-0.0835315
929	-0.151156
928	-0.0713081
927	0.0979342
926	0.0870691
925	-0.0254769
924	-0.0277832
923	-0.0293637
922	-0.178338
921	-0.0867306
920	-0.0413577
919	0.136513
918	0.0410226
917	0.0579556
916	-0.078148
915	0.0668653
914	-0.00549472
913	-0.104586
912	-0.0434317
911	0.115386
910	0.0571101
909	0.268504
908	-0.0346107
907	0.110125
906	-0.00129912
905	-0.0805445
904	0.0851725
903	0.134579
902	-0.0470493
901	0.214181
900	0.22315
899	0.00527558
898	-0.178757
897	0.012258
896	0.0630963
895	-0.119325
894	0.122519
893	-0.0122177
892	0.154554
891	0.0659299
890	0.107931
889	-0.0434389
888	-0.206532
887	-0.184323
886	0.0579775
885	-0.0218111
884	0.0217098
883	0.141113
882	0.0458187
881	0.0022717
880	0.0568015
879	-0.222228
878	0.126529
877	0.459313
876	0.115724
875	-0.0479661
874	-0.0058175
873	0.173889
872	0.110898
871	-0.224485
870	-0.0324788
869	0.199804
868	0.287083
867	0.098051
866	0.112887
865	0.340942
864	-0.268301
863	-0.00419241
862	0.0843043
861	-0.0100977
860	-0.123255
859	-0.0801011
858	0.379257
857	0.422441
856	0.198219
855	0.133488
854	0.0128395
853	0.072287
852	0.379571
851	0.0914825
850	-0.008852
849	0.00373038
848	0.0106784
847	0.00952482
846	0.00351615
845	0.00627726
844	0.00713334
843	0.00159952
842	-0.00483463
841	0.000375188
840	0.00423432
839	0.00826763
838	0.00623389
837	0.00565704
836	0.00529953
835	0.00252442
834	-0.00128103
833	-0.00326489
832	0.00159178
831	0.00658778
830	0.00768514
829	0.00450328
828	0.00541812
827	0.00413254
826	-0.000101658
825	-0.00314786
824	-0.00163475
823	0.00297355
822	0.00646575
821	0.00785492
820	0.00529499
819	0.00412859
818	0.00273363
817	-0.00184761
816	-0.00252628
815	-0.000618057
814	0.004153
813	0.00593439
812	0.0058246
811	0.00530475
810	0.00427404
809	0.001675
808	-0.00295084
807	-0.0035961
806	0.000386731
805	0.00550387
804	0.00657301
803	0.0059111
802	0.00676054
801	0.00360706
800	0.000637471
799	-0.00293894
798	-0.001694
797	0.00154822
796	0.00367439
795	0.0066062
794	0.0056602
793	0.00425987
792	0.0038866
791	-0.000481089
790	-0.00256959
789	-0.00186998
788	0.00197909
787	0.00634337
786	0.00699936
785	0.00554568
784	0.00437898
783	0.00201334
782	-0.00155527
781	-0.00217595
780	-0.000741372
779	0.00259129
778	0.00552963
777	0.0068377
776	0.00529514
775	0.00333129
774	0.000588108
773	-0.00225441
772	-0.00191122
771	0.000203887
770	0.00405927
769	0.00561723
768	0.00645637
767	0.00642921
766	0.00364057
765	0.00100411
764	-0.00188568
763	-0.00171523
762	-1.85387E-05
761	0.00273672
760	0.00585852
759	0.00677702
758	0.00575751
757	0.00351367
756	0.00263153
755	-0.000901004
754	-0.0033344
753	-0.00194234
752	0.0020815
751	0.00521062
750	0.00641643
749	0.00610173
748	0.00547086
747	0.00331523
746	-0.000223147
745	-0.00203981
744	-0.00178276
743	3.90982E-05
742	0.00327423
741	0.00524184
740	0.00690494
739	0.00595101
738	0.0037577
737	0.00146893
736	-0.00147736
735	-0.00232298
734	-0.000612729
733	0.00218788
732	0.00480782
731	0.00695043
730	0.00591033
729	0.0053837
728	0.00279476
727	-9.28895E-06
726	-0.00190409
725	-0.00146719
724	0.000291918
723	0.00266946
722	0.00573088
721	0.00736029
720	0.00623341
719	0.00420344
718	0.00270036
717	8.79198E-05
716	-0.0026095
715	-0.0015541
714	0.0006691
713	0.00313509
712	0.00590432
711	0.00720874
710	0.0063118
709	0.00432394
708	0.00294341
707	-0.000419068
706	-0.00193537
705	-0.00144952
704	0.000571618
703	0.00331835
702	0.00570305
701	0.00741179
700	0.00632796



[コメント情報]
試料名	ﾍ2
オペレーター	
所属	
コメント	

[データ情報]
作成日時	2017/09/26 16:16
スタート	1500 nm
エンド	700 nm
データ間隔	1 nm
データ数	801     

[測定情報]
機種名	V-770
シリアル番号	A034761801
測光モード	%T
UV/Vis バンド幅	0.5 nm
NIR バンド幅	2 nm
レスポンス	Quick
走査速度	200 nm/min
光源	自動
光源切換	340 nm
回折格子切換	850 nm
