TITLE	
DATA TYPE	
ORIGIN	JASCO
OWNER	
DATE	17/11/02
TIME	13:50:00
SPECTROMETER/DATA SYSTEM	JASCO Corp., V-770, Rev. 1.00
RESOLUTION	
DELTAX	-1
XUNITS	NANOMETERS
YUNITS	REFLECTANCE
FIRSTX	2700
LASTX	200
NPOINTS	2501
FIRSTY	89.1941
MAXY	117.143
MINY	-443
XYDATA
2700	89.1941
2699	-443
2698	9.87511
2697	-58.6801
2696	-167.667
2695	61.9191
2694	-5.85337
2693	-15.9126
2692	17.333
2691	30.4801
2690	-92.2049
2689	79.2057
2688	-58.4438
2687	-12.2766
2686	54.604
2685	-5.12693
2684	43.2298
2683	38.1674
2682	-15.0787
2681	25.2428
2680	15.5755
2679	6.56199
2678	117.143
2677	-63.3211
2676	0.961349
2675	-43.6347
2674	-12.6332
2673	58.9417
2672	16.2196
2671	50.567
2670	-55.6813
2669	29.3909
2668	4.84645
2667	-26.9618
2666	45.9359
2665	10.1003
2664	2.16276
2663	14.8177
2662	-0.817856
2661	-17.9654
2660	37.6364
2659	13.6135
2658	16.3351
2657	23.7013
2656	8.22958
2655	14.282
2654	14.8059
2653	22.4132
2652	11.0598
2651	11.2328
2650	-6.74442
2649	5.63533
2648	4.07208
2647	42.3949
2646	-8.37282
2645	-4.76017
2644	39.8006
2643	1.68319
2642	13.0315
2641	12.3076
2640	2.60571
2639	14.2273
2638	4.19439
2637	-7.04266
2636	15.9333
2635	23.2362
2634	6.70979
2633	-14.1674
2632	19.8665
2631	37.3647
2630	26.6322
2629	3.59792
2628	-1.47458
2627	5.33105
2626	27.1563
2625	-5.20696
2624	-9.34519
2623	5.6773
2622	8.49132
2621	32.0033
2620	-4.7433
2619	-11.4333
2618	-10.9323
2617	9.88648
2616	-36.0852
2615	23.1894
2614	-20.915
2613	20.7291
2612	15.4252
2611	9.00809
2610	5.19744
2609	18.9102
2608	-6.92615
2607	12.5303
2606	30.4843
2605	42.3574
2604	13.9015
2603	-22.9986
2602	14.3188
2601	28.2021
2600	-9.25986
2599	16.3544
2598	8.27602
2597	11.4156
2596	29.1673
2595	-11.208
2594	18.1431
2593	7.44458
2592	7.59028
2591	32.3583
2590	-1.07581
2589	18.2964
2588	16.9919
2587	1.8421
2586	15.1366
2585	-9.74896
2584	-20.6983
2583	17.6819
2582	-11.1017
2581	15.2352
2580	-10.6221
2579	-1.72006
2578	13.8134
2577	-2.80231
2576	9.16727
2575	22.6021
2574	-19.3421
2573	9.58889
2572	-3.69856
2571	4.82956
2570	8.51876
2569	6.4405
2568	16.0526
2567	3.31986
2566	-4.23778
2565	20.2967
2564	-7.22851
2563	13.391
2562	20.221
2561	5.94899
2560	27.5093
2559	14.9813
2558	-6.19299
2557	16.3072
2556	7.59155
2555	13.9677
2554	12.4728
2553	-5.5009
2552	12.3169
2551	16.8528
2550	2.86007
2549	21.3257
2548	-0.688006
2547	8.58875
2546	18.3458
2545	-4.93058
2544	16.8825
2543	21.1442
2542	6.13094
2541	15.3688
2540	13.5012
2539	1.04086
2538	19.3372
2537	16.9808
2536	4.59924
2535	20.4635
2534	6.01879
2533	2.07839
2532	11.4388
2531	10.1337
2530	17.0707
2529	-10.4107
2528	16.2347
2527	6.24102
2526	3.04625
2525	10.5639
2524	-3.24749
2523	3.55483
2522	24.4242
2521	-4.6355
2520	10.0355
2519	-4.95508
2518	11.1512
2517	9.23869
2516	8.14981
2515	7.74719
2514	14.329
2513	-1.21067
2512	7.20064
2511	9.75828
2510	1.39551
2509	22.2048
2508	16.763
2507	13.727
2506	15.584
2505	15.7595
2504	9.7247
2503	3.67713
2502	11.4701
2501	18.1419
2500	2.04206
2499	19.0188
2498	7.34228
2497	5.43077
2496	15.3782
2495	3.3545
2494	6.45548
2493	18.007
2492	5.83014
2491	8.99039
2490	4.78556
2489	7.57057
2488	4.85172
2487	-2.80732
2486	8.69296
2485	8.69179
2484	7.43015
2483	20.5002
2482	1.78352
2481	3.05273
2480	11.1134
2479	5.8749
2478	4.1033
2477	18.3279
2476	6.21551
2475	11.4976
2474	6.383
2473	1.79999
2472	11.2149
2471	0.897457
2470	6.94505
2469	14.3706
2468	9.83077
2467	12.9577
2466	10.5965
2465	1.1437
2464	6.7415
2463	-1.78743
2462	10.9995
2461	1.28159
2460	7.95605
2459	15.2097
2458	4.77306
2457	1.51618
2456	13.9186
2455	7.93518
2454	6.79433
2453	12.0409
2452	5.63506
2451	16.9551
2450	6.73391
2449	9.24501
2448	13.9381
2447	-0.0235424
2446	12.2078
2445	2.41447
2444	2.73787
2443	20.4915
2442	3.39818
2441	11.9661
2440	8.99739
2439	12.6901
2438	15.335
2437	5.00415
2436	2.34208
2435	14.1551
2434	7.62987
2433	7.63854
2432	11.6694
2431	6.1176
2430	18.7237
2429	13.0452
2428	9.62497
2427	16.3496
2426	11.3277
2425	12.9427
2424	1.68805
2423	1.83991
2422	11.5321
2421	5.9999
2420	2.0249
2419	9.96069
2418	3.31112
2417	9.43637
2416	5.08407
2415	6.67785
2414	8.22218
2413	9.98607
2412	6.68935
2411	18.9648
2410	5.49851
2409	7.89414
2408	6.04626
2407	4.30126
2406	9.36641
2405	6.25745
2404	13.0688
2403	10.5761
2402	0.761825
2401	11.5468
2400	7.70932
2399	6.30089
2398	8.27822
2397	4.18064
2396	9.47414
2395	15.2296
2394	7.70221
2393	12.0582
2392	5.98184
2391	9.91318
2390	13.0955
2389	11.0529
2388	6.86746
2387	6.88509
2386	4.2445
2385	11.3896
2384	9.52981
2383	9.88744
2382	21.0634
2381	3.89004
2380	5.20791
2379	5.53637
2378	3.87341
2377	10.1642
2376	2.67992
2375	11.4733
2374	9.76966
2373	2.32779
2372	7.08006
2371	4.2954
2370	5.60739
2369	3.837
2368	-0.90282
2367	11.8617
2366	4.03681
2365	10.1329
2364	9.57833
2363	3.52287
2362	2.80059
2361	14.5077
2360	6.11051
2359	10.4468
2358	9.97754
2357	7.38716
2356	10.7403
2355	2.61257
2354	12.885
2353	12.5039
2352	-0.596035
2351	6.66179
2350	5.61676
2349	3.44184
2348	15.4526
2347	6.24359
2346	7.4849
2345	10.776
2344	6.93907
2343	12.3606
2342	4.63058
2341	5.44862
2340	13.3152
2339	1.23541
2338	13.4376
2337	13.1174
2336	3.71088
2335	8.04682
2334	9.51793
2333	12.0815
2332	10.1956
2331	2.32039
2330	16.6454
2329	7.21406
2328	1.37239
2327	10.0265
2326	6.49944
2325	10.205
2324	17.3161
2323	9.46852
2322	4.84651
2321	13.7119
2320	4.7399
2319	11.3839
2318	8.55281
2317	9.73192
2316	7.82028
2315	4.18969
2314	9.92746
2313	9.39385
2312	7.4887
2311	12.9377
2310	6.51333
2309	7.16652
2308	13.7661
2307	8.45968
2306	10.5163
2305	5.83639
2304	6.21445
2303	10.4861
2302	2.57639
2301	5.87807
2300	13.9101
2299	4.7625
2298	4.41467
2297	4.747
2296	3.53245
2295	9.53311
2294	4.85651
2293	9.62373
2292	10.191
2291	-0.197759
2290	4.94737
2289	11.2147
2288	6.36034
2287	13.5396
2286	6.49733
2285	10.9329
2284	13.9025
2283	5.15878
2282	13.3844
2281	7.85821
2280	10.2151
2279	12.82
2278	7.55004
2277	12.3565
2276	6.14122
2275	7.26026
2274	6.54721
2273	13.4996
2272	5.76172
2271	10.2443
2270	-1.33466
2269	7.1442
2268	11.8312
2267	6.2461
2266	10.3044
2265	2.58365
2264	4.64066
2263	12.8429
2262	11.0813
2261	2.15123
2260	8.63032
2259	2.36615
2258	10.8338
2257	3.88322
2256	9.89907
2255	13.8943
2254	4.70519
2253	9.85557
2252	5.19648
2251	5.81419
2250	4.72485
2249	3.70825
2248	9.02164
2247	7.77488
2246	4.51235
2245	9.22563
2244	5.75997
2243	4.10589
2242	7.76141
2241	12.7626
2240	7.58922
2239	8.58758
2238	1.24393
2237	14.0189
2236	3.23138
2235	8.6408
2234	11.7052
2233	6.30927
2232	9.75946
2231	15.9224
2230	4.81026
2229	11.3147
2228	3.99685
2227	9.39268
2226	12.5452
2225	3.18955
2224	3.54723
2223	3.42034
2222	7.75975
2221	9.55207
2220	6.29155
2219	5.60155
2218	14.4541
2217	4.18628
2216	10.467
2215	6.61776
2214	5.81096
2213	1.98162
2212	4.45775
2211	8.31879
2210	2.99888
2209	4.91409
2208	11.7443
2207	6.90767
2206	6.28556
2205	12.0399
2204	8.03136
2203	3.64177
2202	6.96284
2201	8.17304
2200	7.7339
2199	3.34445
2198	5.055
2197	9.4568
2196	6.64182
2195	10.0608
2194	8.41385
2193	4.40785
2192	13.5144
2191	8.25302
2190	5.24291
2189	11.6522
2188	6.90899
2187	8.68406
2186	10.6275
2185	3.35018
2184	10.1423
2183	10.7509
2182	3.68569
2181	10.7784
2180	4.96238
2179	9.61937
2178	10.3703
2177	7.87194
2176	10.3956
2175	1.90085
2174	4.15707
2173	9.56586
2172	4.02244
2171	4.68824
2170	9.93766
2169	3.0659
2168	8.1323
2167	5.26425
2166	7.78131
2165	5.88394
2164	5.88318
2163	10.6672
2162	6.45864
2161	8.33742
2160	10.2741
2159	9.36837
2158	1.88792
2157	10.047
2156	4.72454
2155	16.6238
2154	10.7212
2153	2.96468
2152	8.82163
2151	6.56155
2150	5.48278
2149	9.49318
2148	5.10651
2147	11.159
2146	5.95068
2145	8.44682
2144	3.33203
2143	9.18536
2142	10.1905
2141	14.4131
2140	2.97743
2139	5.06823
2138	7.61412
2137	7.12258
2136	10.3343
2135	15.1244
2134	7.55632
2133	10.6049
2132	6.26385
2131	5.11617
2130	10.3635
2129	3.13875
2128	8.09869
2127	6.38552
2126	10.2829
2125	7.91553
2124	6.21127
2123	11.6067
2122	6.82528
2121	6.09932
2120	10.1008
2119	3.29752
2118	7.4774
2117	7.47664
2116	2.85005
2115	9.98959
2114	7.04595
2113	4.81565
2112	10.8691
2111	0.44155
2110	5.10751
2109	8.60891
2108	6.40356
2107	11.0882
2106	6.26861
2105	3.65585
2104	10.7008
2103	9.17699
2102	6.80758
2101	7.67837
2100	3.38442
2099	8.17043
2098	8.67387
2097	5.71964
2096	8.56067
2095	8.4368
2094	12.0894
2093	4.24003
2092	8.44103
2091	10.8817
2090	6.90925
2089	8.01366
2088	9.30671
2087	3.8357
2086	10.7311
2085	7.91573
2084	5.37661
2083	10.9344
2082	4.36139
2081	6.21914
2080	9.05928
2079	4.77411
2078	10.5219
2077	4.31432
2076	6.07874
2075	13.868
2074	1.87305
2073	6.55233
2072	6.89189
2071	5.98286
2070	9.74286
2069	6.20543
2068	3.26186
2067	8.72278
2066	3.93431
2065	6.25979
2064	7.12143
2063	4.25837
2062	7.26448
2061	12.43
2060	5.53608
2059	11.0136
2058	4.68743
2057	8.20025
2056	10.4823
2055	7.09404
2054	10.1911
2053	9.96083
2052	6.37294
2051	6.8427
2050	4.727
2049	8.46621
2048	8.19498
2047	6.15679
2046	7.60387
2045	5.9258
2044	6.54399
2043	9.72948
2042	7.81841
2041	6.59962
2040	10.3011
2039	6.51314
2038	9.18777
2037	7.86497
2036	10.7875
2035	9.54161
2034	3.42856
2033	7.43123
2032	9.61402
2031	8.44597
2030	6.79989
2029	9.37422
2028	9.12751
2027	9.90254
2026	7.51425
2025	9.42782
2024	8.21019
2023	5.94335
2022	6.62476
2021	11.0813
2020	10.2786
2019	10.2259
2018	7.38719
2017	7.71151
2016	7.42716
2015	7.97125
2014	6.3468
2013	8.92095
2012	5.55608
2011	8.29948
2010	6.65216
2009	9.2079
2008	8.107
2007	5.65229
2006	10.1817
2005	6.98196
2004	7.16984
2003	11.8844
2002	5.68289
2001	7.49595
2000	11.6338
1999	2.0929
1998	11.0933
1997	4.6607
1996	13.2838
1995	8.72619
1994	7.88363
1993	9.89666
1992	4.9568
1991	4.34336
1990	9.0133
1989	6.16969
1988	10.7762
1987	8.55018
1986	4.73561
1985	11.1255
1984	5.701
1983	9.07105
1982	5.70132
1981	2.65837
1980	8.29205
1979	12.7305
1978	3.68476
1977	7.80939
1976	6.8244
1975	6.70847
1974	14.1998
1973	6.59027
1972	9.21854
1971	8.27575
1970	3.10739
1969	7.41852
1968	8.96011
1967	5.74684
1966	9.91436
1965	3.10873
1964	9.43405
1963	8.42544
1962	2.53021
1961	8.22512
1960	10.2682
1959	6.12736
1958	10.4453
1957	2.38723
1956	5.81336
1955	11.0758
1954	5.21779
1953	10.56
1952	5.76982
1951	6.26186
1950	10.8023
1949	4.40573
1948	9.10617
1947	9.41607
1946	8.13807
1945	11.4141
1944	8.19161
1943	7.99398
1942	8.06435
1941	7.62762
1940	9.1544
1939	8.96435
1938	8.17737
1937	9.03175
1936	7.83486
1935	4.34197
1934	6.01852
1933	7.66954
1932	6.45028
1931	10.5057
1930	4.44322
1929	10.5244
1928	11.3297
1927	10.0344
1926	7.1493
1925	4.49916
1924	7.59267
1923	8.8913
1922	6.97323
1921	9.31029
1920	3.9612
1919	9.30546
1918	9.35219
1917	6.0156
1916	7.84068
1915	7.19175
1914	7.13232
1913	11.9296
1912	5.53747
1911	6.88557
1910	9.13629
1909	3.80683
1908	8.06115
1907	6.17509
1906	6.81966
1905	8.0433
1904	6.84879
1903	4.00598
1902	11.1653
1901	6.31875
1900	11.763
1899	6.06591
1898	7.38232
1897	10.0182
1896	7.90383
1895	5.82148
1894	7.67618
1893	6.55691
1892	9.54259
1891	8.51581
1890	5.8924
1889	12.5023
1888	8.0583
1887	7.82042
1886	7.60684
1885	8.78081
1884	10.5858
1883	9.32776
1882	7.24453
1881	10.0739
1880	7.31823
1879	10.1473
1878	8.78314
1877	7.66995
1876	9.02652
1875	8.54591
1874	6.5926
1873	5.87506
1872	2.98141
1871	6.90289
1870	8.4153
1869	8.07985
1868	7.98704
1867	7.99652
1866	6.4185
1865	8.42226
1864	8.21077
1863	7.92339
1862	6.47495
1861	5.55666
1860	8.85941
1859	4.60982
1858	7.42235
1857	10.1454
1856	7.75062
1855	6.64064
1854	8.09034
1853	9.81949
1852	7.70285
1851	8.82731
1850	5.30923
1849	6.52277
1848	5.11946
1847	5.91959
1846	7.389
1845	7.08319
1844	8.53146
1843	8.49107
1842	8.82955
1841	7.86489
1840	7.30886
1839	9.06443
1838	7.24041
1837	7.74378
1836	8.01792
1835	5.37963
1834	9.99277
1833	6.46377
1832	7.74124
1831	6.71269
1830	9.89842
1829	5.64064
1828	10.3442
1827	5.39023
1826	7.72491
1825	9.26432
1824	3.54902
1823	6.49942
1822	6.31381
1821	6.53843
1820	7.64131
1819	6.71431
1818	5.771
1817	8.11894
1816	7.70144
1815	6.61264
1814	5.67951
1813	7.37373
1812	10.2681
1811	4.87299
1810	6.5562
1809	8.60691
1808	7.49142
1807	7.23314
1806	7.09636
1805	5.63971
1804	8.33822
1803	6.62219
1802	8.93055
1801	8.19094
1800	5.20301
1799	8.6805
1798	5.78109
1797	5.78646
1796	7.3348
1795	7.55028
1794	8.49143
1793	8.84547
1792	7.27505
1791	7.63544
1790	9.13457
1789	6.47928
1788	5.28796
1787	7.44515
1786	8.33703
1785	7.60755
1784	5.77996
1783	8.39476
1782	9.07865
1781	7.42217
1780	8.48902
1779	6.8089
1778	8.29952
1777	6.82636
1776	4.38866
1775	8.49761
1774	7.89588
1773	7.77827
1772	7.36072
1771	6.33341
1770	5.55088
1769	6.71412
1768	6.2547
1767	6.15406
1766	7.77685
1765	6.15177
1764	5.80619
1763	5.93731
1762	7.88307
1761	7.64458
1760	6.07928
1759	6.59981
1758	8.64873
1757	6.70991
1756	8.07086
1755	6.14422
1754	6.97487
1753	7.78376
1752	4.87244
1751	6.98104
1750	7.41139
1749	6.33255
1748	9.36158
1747	6.2158
1746	7.45575
1745	8.36749
1744	5.81354
1743	8.32687
1742	6.52067
1741	6.81036
1740	7.1317
1739	6.74705
1738	7.86967
1737	8.28307
1736	7.0245
1735	7.90259
1734	6.92986
1733	5.69824
1732	7.16744
1731	6.25466
1730	7.76336
1729	8.1873
1728	5.49892
1727	6.43565
1726	6.24499
1725	8.06144
1724	7.37559
1723	5.29995
1722	6.97231
1721	6.85046
1720	10.0647
1719	6.88779
1718	6.06065
1717	7.35644
1716	8.86236
1715	5.7852
1714	6.49452
1713	7.77003
1712	7.71137
1711	7.7476
1710	7.87865
1709	6.34386
1708	8.27124
1707	5.61369
1706	6.27704
1705	6.47943
1704	5.99949
1703	8.89964
1702	5.85681
1701	6.64058
1700	8.53755
1699	5.49953
1698	7.20276
1697	8.50658
1696	5.88937
1695	9.27431
1694	6.57028
1693	6.8924
1692	8.05172
1691	7.01817
1690	6.40526
1689	8.56411
1688	6.03233
1687	7.38717
1686	5.21299
1685	5.55029
1684	8.32503
1683	6.15638
1682	6.93816
1681	8.85044
1680	6.62324
1679	6.97157
1678	8.28189
1677	7.6044
1676	8.0622
1675	6.75631
1674	9.06203
1673	5.71644
1672	5.2427
1671	9.34752
1670	7.62057
1669	5.22749
1668	7.71579
1667	6.05256
1666	7.84462
1665	9.39353
1664	5.83201
1663	7.34058
1662	7.494
1661	6.55386
1660	7.15707
1659	7.01845
1658	8.48469
1657	9.13608
1656	6.94544
1655	8.77768
1654	7.48239
1653	5.85095
1652	7.03011
1651	4.84125
1650	7.58764
1649	8.41463
1648	6.04066
1647	7.25274
1646	6.72642
1645	8.97295
1644	9.24954
1643	6.56263
1642	8.50497
1641	4.94596
1640	6.19036
1639	8.58093
1638	6.33059
1637	6.45624
1636	9.27863
1635	7.47054
1634	7.92402
1633	8.304
1632	7.25261
1631	7.36909
1630	6.3392
1629	6.62977
1628	8.441
1627	4.47849
1626	8.63575
1625	8.36115
1624	6.1031
1623	7.99772
1622	6.7899
1621	7.47752
1620	7.59849
1619	7.50204
1618	6.13558
1617	8.67313
1616	6.33949
1615	7.10768
1614	5.59266
1613	9.13451
1612	8.80226
1611	4.35352
1610	7.98987
1609	8.04745
1608	6.32688
1607	8.44602
1606	5.42516
1605	7.68499
1604	7.74779
1603	6.81357
1602	7.70547
1601	8.84378
1600	7.11805
1599	6.61233
1598	7.03514
1597	5.3138
1596	8.15987
1595	5.93667
1594	8.27491
1593	8.5654
1592	7.72231
1591	8.3233
1590	6.32301
1589	6.78794
1588	8.05895
1587	7.04227
1586	8.69728
1585	6.62667
1584	5.57835
1583	8.00997
1582	7.62017
1581	6.96749
1580	8.16021
1579	7.27769
1578	8.10143
1577	7.42452
1576	6.0265
1575	7.93919
1574	6.93542
1573	6.47083
1572	8.61669
1571	4.91803
1570	8.21831
1569	8.24814
1568	7.70002
1567	6.89847
1566	6.91699
1565	7.42327
1564	8.49804
1563	4.73704
1562	7.38177
1561	7.49841
1560	7.01267
1559	7.08495
1558	7.22788
1557	6.76877
1556	7.76539
1555	7.73949
1554	8.14107
1553	7.9265
1552	7.51464
1551	7.60041
1550	6.69045
1549	5.39037
1548	8.85164
1547	5.3281
1546	7.65938
1545	7.70793
1544	5.07081
1543	8.45331
1542	7.50992
1541	5.44639
1540	7.86577
1539	7.11708
1538	7.51643
1537	8.57295
1536	6.47284
1535	6.98055
1534	7.55414
1533	6.74494
1532	9.31655
1531	6.1207
1530	8.02392
1529	6.97218
1528	6.17361
1527	7.96548
1526	7.17125
1525	5.62027
1524	7.93024
1523	7.11706
1522	6.41163
1521	5.99182
1520	5.93957
1519	7.27878
1518	7.2355
1517	5.53719
1516	6.7677
1515	6.51551
1514	6.346
1513	8.22637
1512	5.7598
1511	7.10055
1510	7.14371
1509	7.66283
1508	7.1915
1507	7.45688
1506	6.42781
1505	6.58746
1504	7.27892
1503	7.37689
1502	6.78638
1501	7.03195
1500	9.22306
1499	5.96112
1498	8.4842
1497	8.0534
1496	7.02431
1495	8.03544
1494	6.03959
1493	7.33403
1492	7.55285
1491	5.28031
1490	7.61046
1489	7.60931
1488	5.98908
1487	7.2241
1486	7.64417
1485	7.42435
1484	7.54358
1483	6.9249
1482	7.05196
1481	7.74118
1480	6.92531
1479	7.79413
1478	6.76038
1477	6.7591
1476	7.43329
1475	5.40287
1474	8.09947
1473	7.46051
1472	4.69107
1471	6.88096
1470	7.56794
1469	7.00709
1468	6.6593
1467	6.41172
1466	7.9101
1465	5.86244
1464	4.63677
1463	6.1155
1462	5.86216
1461	6.45271
1460	7.67691
1459	6.06087
1458	6.38388
1457	7.70122
1456	6.14367
1455	8.06265
1454	6.84063
1453	6.09589
1452	7.2433
1451	6.30327
1450	7.31746
1449	6.84374
1448	6.87364
1447	7.81012
1446	8.27669
1445	7.56597
1444	6.90682
1443	7.15075
1442	7.42132
1441	7.00021
1440	6.58615
1439	7.79337
1438	7.17412
1437	6.28703
1436	8.36211
1435	6.28494
1434	6.55601
1433	6.81368
1432	5.85849
1431	8.51207
1430	6.75204
1429	6.66741
1428	6.797
1427	6.0034
1426	8.96426
1425	6.89127
1424	5.54886
1423	5.77255
1422	6.63336
1421	6.66556
1420	6.93926
1419	6.2833
1418	6.75344
1417	7.35809
1416	6.72376
1415	7.34703
1414	6.3586
1413	7.55294
1412	6.90556
1411	6.907
1410	6.70723
1409	7.45082
1408	5.88799
1407	7.18856
1406	6.12526
1405	6.82657
1404	7.445
1403	7.05484
1402	6.55134
1401	6.89777
1400	6.59359
1399	8.71537
1398	6.68581
1397	6.1059
1396	6.89603
1395	6.85955
1394	7.2878
1393	7.58896
1392	6.30336
1391	7.63963
1390	5.70397
1389	6.66278
1388	7.81406
1387	7.50364
1386	6.41987
1385	6.20701
1384	7.16979
1383	7.21198
1382	6.72919
1381	7.50579
1380	7.7978
1379	6.75203
1378	6.27239
1377	6.99996
1376	5.46666
1375	8.31405
1374	6.96181
1373	7.55759
1372	7.78916
1371	6.79514
1370	6.57307
1369	7.97512
1368	4.97623
1367	7.62541
1366	6.95117
1365	5.26819
1364	7.46389
1363	6.14492
1362	8.0476
1361	7.75445
1360	7.41953
1359	8.64961
1358	6.72442
1357	6.27829
1356	8.39334
1355	5.36692
1354	7.10416
1353	7.71816
1352	4.84474
1351	7.98976
1350	5.89879
1349	6.86698
1348	8.27918
1347	7.1232
1346	6.91922
1345	7.39121
1344	6.07649
1343	7.16559
1342	5.72986
1341	7.17471
1340	7.3664
1339	6.21737
1338	7.32899
1337	7.99167
1336	6.69627
1335	6.71891
1334	7.17819
1333	6.68674
1332	6.24435
1331	6.52681
1330	8.08512
1329	7.46448
1328	6.70052
1327	7.50312
1326	7.05106
1325	7.47155
1324	7.71194
1323	6.07378
1322	8.17418
1321	6.50473
1320	6.95927
1319	7.65488
1318	8.16217
1317	6.2784
1316	8.13916
1315	7.03059
1314	6.26931
1313	7.253
1312	5.63481
1311	7.30326
1310	6.79112
1309	6.88654
1308	6.61247
1307	5.92097
1306	7.36473
1305	6.65023
1304	6.39159
1303	8.46037
1302	6.63981
1301	7.24728
1300	7.03523
1299	7.27563
1298	5.21588
1297	7.69823
1296	6.70877
1295	7.05898
1294	6.01499
1293	6.91716
1292	6.96656
1291	5.96151
1290	7.17013
1289	8.13081
1288	6.19426
1287	7.48737
1286	7.05213
1285	7.30695
1284	7.57437
1283	6.57252
1282	6.66181
1281	8.64174
1280	6.69597
1279	6.95464
1278	7.76682
1277	6.54178
1276	7.99162
1275	5.48619
1274	7.5281
1273	7.02663
1272	6.33905
1271	7.63885
1270	6.92508
1269	5.98775
1268	7.48907
1267	6.3705
1266	7.06992
1265	6.47426
1264	7.28447
1263	7.34712
1262	7.71479
1261	5.90197
1260	7.98872
1259	5.68379
1258	7.21172
1257	6.80551
1256	6.03735
1255	5.81664
1254	7.61324
1253	6.02418
1252	8.56371
1251	6.27775
1250	6.32954
1249	6.96337
1248	6.04948
1247	7.21901
1246	6.52017
1245	6.3465
1244	7.48003
1243	6.68488
1242	7.00929
1241	5.92982
1240	5.93671
1239	6.46975
1238	7.17978
1237	6.43668
1236	8.19939
1235	6.05087
1234	5.89343
1233	6.48222
1232	6.49143
1231	7.5569
1230	4.88301
1229	5.92669
1228	7.06636
1227	5.13782
1226	7.2098
1225	7.56846
1224	6.52491
1223	6.54376
1222	6.13316
1221	6.6942
1220	6.49358
1219	6.74755
1218	5.61568
1217	6.43101
1216	5.73555
1215	8.31108
1214	6.38764
1213	6.94863
1212	7.60989
1211	6.88306
1210	6.83328
1209	7.61972
1208	5.78458
1207	7.91772
1206	6.68299
1205	6.31593
1204	7.22377
1203	5.80517
1202	7.31039
1201	6.85274
1200	6.41243
1199	6.49645
1198	7.88682
1197	6.49518
1196	6.21744
1195	7.78973
1194	5.72912
1193	5.64777
1192	6.70767
1191	7.57237
1190	6.80455
1189	5.05937
1188	8.46101
1187	7.03481
1186	5.9005
1185	7.14782
1184	6.31894
1183	5.86901
1182	6.92573
1181	4.88215
1180	5.69499
1179	7.51395
1178	6.67798
1177	6.98494
1176	5.96744
1175	6.1358
1174	6.63886
1173	4.33469
1172	8.47131
1171	8.62279
1170	5.63832
1169	6.8119
1168	6.46808
1167	6.51416
1166	7.62201
1165	6.34818
1164	5.75468
1163	6.58684
1162	5.74273
1161	8.08642
1160	7.71962
1159	6.37722
1158	6.66305
1157	4.82595
1156	6.8268
1155	7.72432
1154	6.15167
1153	6.95635
1152	7.4654
1151	5.93457
1150	7.24112
1149	5.60254
1148	5.79585
1147	8.26232
1146	7.03064
1145	6.72643
1144	5.90378
1143	7.22505
1142	7.40399
1141	5.9674
1140	6.82905
1139	5.85846
1138	4.91659
1137	7.06296
1136	7.13804
1135	7.2424
1134	7.44296
1133	6.2457
1132	5.2066
1131	6.9415
1130	5.0027
1129	6.99986
1128	6.04791
1127	6.23688
1126	6.44797
1125	6.8411
1124	6.7228
1123	6.76683
1122	7.04893
1121	8.26744
1120	6.50154
1119	5.67808
1118	7.03725
1117	5.71934
1116	6.7961
1115	5.5407
1114	5.48175
1113	5.97472
1112	5.44266
1111	5.98448
1110	6.95152
1109	7.44964
1108	5.71918
1107	6.51602
1106	5.69027
1105	7.34741
1104	5.13052
1103	4.24534
1102	7.40594
1101	5.9854
1100	6.65515
1099	6.17045
1098	6.7193
1097	6.07464
1096	5.81505
1095	5.47015
1094	5.5569
1093	6.39781
1092	5.83418
1091	5.52766
1090	5.00326
1089	6.13963
1088	6.33193
1087	3.84707
1086	6.90289
1085	4.08401
1084	6.6988
1083	6.18057
1082	3.6094
1081	5.75754
1080	5.87991
1079	4.62723
1078	5.93098
1077	5.21004
1076	4.72042
1075	5.18953
1074	3.9425
1073	5.38942
1072	5.68894
1071	4.59262
1070	8.567
1069	3.55357
1068	6.34707
1067	6.68902
1066	2.65179
1065	5.88726
1064	6.1189
1063	3.59901
1062	4.8784
1061	4.95836
1060	5.02671
1059	5.9394
1058	4.46685
1057	5.40604
1056	4.06949
1055	5.69386
1054	6.7956
1053	4.6014
1052	5.54073
1051	4.95557
1050	4.59354
1049	5.45432
1048	5.3143
1047	3.55988
1046	4.26347
1045	3.75975
1044	4.23179
1043	6.72516
1042	2.39031
1041	6.49185
1040	4.60612
1039	3.71922
1038	6.38846
1037	3.94006
1036	4.88758
1035	5.9611
1034	4.05974
1033	5.32645
1032	5.44933
1031	4.55011
1030	6.14563
1029	5.60232
1028	3.52047
1027	4.36088
1026	3.97167
1025	5.80052
1024	5.16965
1023	3.54556
1022	5.24186
1021	3.40659
1020	5.02337
1019	3.46945
1018	5.41662
1017	5.01525
1016	2.95062
1015	2.8411
1014	6.64872
1013	6.24672
1012	1.52703
1011	4.73373
1010	3.06339
1009	3.69194
1008	6.00991
1007	5.37665
1006	4.45536
1005	3.89983
1004	4.54326
1003	5.90722
1002	6.60835
1001	6.08649
1000	5.44727
999	3.20637
998	9.37598
997	5.27112
996	4.37827
995	6.32632
994	4.60393
993	4.69107
992	5.27983
991	1.35073
990	6.10466
989	5.26912
988	5.15699
987	5.19621
986	4.28651
985	4.41266
984	4.06119
983	2.80714
982	5.67946
981	5.1938
980	3.03743
979	6.39909
978	4.6188
977	4.49429
976	7.75993
975	0.0181312
974	5.10772
973	5.70157
972	1.86126
971	5.36854
970	1.69585
969	3.98068
968	5.41517
967	3.29266
966	5.6863
965	4.92818
964	2.65891
963	7.74209
962	3.10017
961	1.98509
960	4.9848
959	4.02218
958	4.47545
957	5.92006
956	5.91743
955	8.01834
954	6.01435
953	0.0736926
952	6.77561
951	2.83301
950	6.83727
949	4.95655
948	0.849814
947	10.787
946	-1.57265
945	3.69142
944	6.82089
943	0.640147
942	7.18098
941	7.13278
940	3.19199
939	7.75122
938	2.90859
937	6.99613
936	7.80362
935	-3.34316
934	4.50827
933	6.07693
932	-0.927117
931	7.70408
930	2.88197
929	6.70268
928	5.54273
927	9.77966
926	7.50666
925	10.6525
924	-1.30718
923	6.16329
922	0.746888
921	1.27013
920	6.34789
919	-0.587654
918	6.20927
917	3.85363
916	3.47596
915	12.67
914	4.17111
913	9.15529
912	12.998
911	5.17949
910	6.09448
909	10.9044
908	1.30209
907	5.62021
906	-2.05778
905	9.34798
904	6.72006
903	1.75782
902	7.33764
901	8.49101
900	-3.08861
899	4.74015
898	10.9097
897	-0.128091
896	6.44553
895	1.59909
894	-5.01653
893	21.7857
892	10.9718
891	8.87848
890	7.29792
889	-1.66032
888	10.1555
887	-1.27819
886	16.8843
885	23.3606
884	-11.3279
883	13.3303
882	24.0131
881	-5.59513
880	20.5
879	-5.43618
878	6.00559
877	12.3831
876	3.81441
875	12.4041
874	19.2682
873	16.4443
872	19.7184
871	5.37588
870	-6.28414
869	22.814
868	22.1706
867	15.6689
866	2.7011
865	-16.05
864	7.25654
863	17.9721
862	-2.54589
861	7.83722
860	-11.6426
859	15.7257
858	0.914758
857	1.2662
856	39.5963
855	14.6752
854	-15.0288
853	9.49101
852	-14.9497
851	23.1235
850	31.4657
849	32.412
848	30.4388
847	30.2211
846	32.2999
845	29.6069
844	31.1534
843	31.1176
842	28.8868
841	31.2829
840	29.8153
839	29.2814
838	30.9996
837	28.9902
836	29.9363
835	29.49
834	27.6341
833	29.3983
832	28.299
831	28.8297
830	29.5088
829	27.004
828	28.3009
827	28.5798
826	26.9375
825	29.0793
824	27.2458
823	27.5307
822	29.0036
821	26.6835
820	28.1364
819	28.134
818	26.4373
817	28.2925
816	26.7218
815	26.8798
814	28.4551
813	26.7546
812	27.7531
811	27.5969
810	26.5492
809	28.5417
808	26.6153
807	26.5656
806	28.2614
805	26.3943
804	27.3172
803	27.4607
802	25.7955
801	28.2747
800	27.1864
799	26.2726
798	28.6371
797	25.913
796	26.8019
795	27.2925
794	25.2827
793	28.0649
792	26.2347
791	26.2107
790	27.8491
789	25.7216
788	27.6045
787	27.0069
786	26.0453
785	27.9813
784	26.602
783	26.2627
782	27.8384
781	25.4448
780	27.2574
779	27.2066
778	25.361
777	27.388
776	26.3477
775	26.1826
774	28.0465
773	25.0681
772	26.975
771	27.1745
770	25.754
769	27.391
768	25.9816
767	25.8359
766	27.0861
765	24.9439
764	26.7978
763	26.737
762	24.5411
761	27.4303
760	25.3876
759	25.425
758	27.5551
757	24.3387
756	26.3023
755	26.1183
754	24.3512
753	26.9697
752	25.3655
751	25.1354
750	26.5503
749	24.2429
748	26.2655
747	25.8671
746	23.9896
745	26.731
744	24.4973
743	24.7409
742	26.287
741	23.8664
740	23.4207
739	24.6854
738	25.57
737	23.1599
736	25.0844
735	24.3237
734	23.3151
733	25.5965
732	23.071
731	24.3003
730	24.9403
729	22.4542
728	24.8922
727	23.603
726	22.7018
725	25.09
724	22.4614
723	23.6394
722	24.0917
721	22.0817
720	24.1658
719	22.8708
718	22.1665
717	24.0847
716	21.6934
715	22.854
714	23.6295
713	21.3175
712	23.7124
711	22.3084
710	21.4813
709	23.7722
708	21.3859
707	22.6755
706	22.953
705	20.9912
704	23.1707
703	21.8751
702	21.1454
701	23.3049
700	20.7892
699	22.2413
698	22.4787
697	20.6011
696	23.2624
695	21.3334
694	20.761
693	23.2025
692	20.5749
691	21.979
690	22.4412
689	19.9329
688	22.6831
687	20.4908
686	19.7526
685	22.1006
684	18.6684
683	20.3268
682	20.3337
681	18.1156
680	20.9586
679	19.3139
678	19.6057
677	21.8199
676	19.6511
675	21.0622
674	21.3595
673	19.2619
672	21.931
671	20.0186
670	19.7243
669	21.7632
668	19.2766
667	21.0044
666	21.1196
665	19.1721
664	21.8136
663	20.0556
662	19.5898
661	21.9555
660	19.1257
659	20.7129
658	21.2458
657	19.3333
656	21.7993
655	20.0475
654	19.8341
653	21.9405
652	19.1786
651	20.7395
650	21.0769
649	19.1207
648	21.957
647	20.1586
646	19.9437
645	22.0928
644	19.5658
643	20.9991
642	21.0044
641	19.2511
640	21.814
639	19.9268
638	20.0685
637	21.927
636	19.1828
635	20.9421
634	21.1472
633	19.1208
632	21.8493
631	19.9301
630	20.0259
629	21.979
628	19.322
627	20.8823
626	21.2379
625	19.1074
624	21.7298
623	20.1246
622	19.9574
621	21.7871
620	19.5838
619	20.4917
618	21.1356
617	19.5585
616	21.1446
615	20.5843
614	19.8659
613	21.5623
612	19.8001
611	20.4168
610	21.1645
609	19.7603
608	21.2676
607	20.4977
606	19.9203
605	21.4634
604	19.7416
603	20.3844
602	21.3194
601	19.5905
600	21.1133
599	20.5172
598	19.9364
597	21.468
596	19.9952
595	20.5223
594	21.2767
593	19.7367
592	21.0811
591	20.6998
590	20.0968
589	21.5528
588	19.8878
587	20.5637
586	21.4565
585	19.7248
584	21.1832
583	20.5502
582	20.2248
581	21.7913
580	20.0201
579	20.7055
578	21.4566
577	19.9326
576	21.3942
575	20.8961
574	20.1248
573	21.7743
572	20.2931
571	20.6632
570	21.7087
569	19.8859
568	21.2673
567	20.9051
566	20.1418
565	21.7249
564	20.0963
563	20.5345
562	21.676
561	20.0187
560	21.3174
559	21.0642
558	20.335
557	21.8027
556	20.3083
555	20.9402
554	21.6798
553	20.1704
552	21.513
551	21.0577
550	20.5484
549	21.9858
548	20.4652
547	20.837
546	22.2429
545	20.0431
544	21.7583
543	21.1061
542	20.4664
541	22.0215
540	20.4989
539	21.2627
538	22.0012
537	20.2862
536	21.8249
535	21.2761
534	20.3517
533	22.2662
532	20.6163
531	21.2344
530	22.228
529	20.3805
528	21.9082
527	21.4501
526	20.5806
525	22.5729
524	20.6805
523	21.3888
522	22.1865
521	20.371
520	22.1238
519	21.506
518	20.6395
517	22.679
516	20.6373
515	21.4268
514	22.4915
513	20.473
512	22.1326
511	21.6324
510	22.5764
509	21.2612
508	21.1779
507	22.515
506	21.0258
505	22.0765
504	22.3703
503	21.0522
502	22.6424
501	21.327
500	21.4871
499	22.8853
498	20.9989
497	22.3495
496	22.2494
495	21.0815
494	22.76
493	21.4358
492	21.7357
491	23.1612
490	21.138
489	22.3867
488	22.5236
487	21.3491
486	23.1507
485	21.5296
484	21.9192
483	23.1546
482	21.4003
481	22.9532
480	22.6888
479	21.7436
478	23.4832
477	22.0631
476	22.3566
475	23.315
474	21.7426
473	23.2305
472	22.8705
471	21.9471
470	23.8576
469	22.2168
468	22.7639
467	23.7649
466	22.0727
465	23.9407
464	23.0637
463	22.4797
462	24.3475
461	22.5958
460	23.349
459	24.1632
458	22.3484
457	24.2057
456	23.1364
455	22.6653
454	24.6152
453	22.6204
452	23.3265
451	24.1705
450	23.8199
449	22.5418
448	24.4903
447	22.8623
446	23.1903
445	24.3538
444	22.1186
443	23.8867
442	23.57
441	22.4229
440	24.54
439	22.799
438	23.2259
437	24.2939
436	22.4998
435	24.2717
434	23.7156
433	22.6773
432	24.7121
431	23.0771
430	23.7429
429	24.6269
428	22.75
427	24.7222
426	23.9688
425	22.9599
424	24.8344
423	22.834
422	23.8622
421	24.6565
420	22.6574
419	24.8612
418	23.6806
417	23.1315
416	25.171
415	22.9829
414	23.9368
413	24.8345
412	22.99
411	25.5674
410	24.8918
409	25.5933
408	24.3104
407	25.7539
406	24.7758
405	24.4567
404	25.9455
403	24.2343
402	25.642
401	25.8944
400	24.4557
399	26.1578
398	24.9621
397	25.3034
396	26.4499
395	24.6176
394	26.693
393	26.705
392	25.4211
391	27.4796
390	26.2616
389	26.1632
388	27.4259
387	26.0235
386	27.2378
385	26.7463
384	26.0225
383	28.1252
382	26.5689
381	27.1869
380	28.7625
379	26.7566
378	28.3315
377	28.5817
376	27.7783
375	29.6741
374	27.768
373	28.5769
372	29.3868
371	28.397
370	28.8184
369	30.6388
368	29.5491
367	29.3336
366	30.5339
365	28.9437
364	29.3124
363	29.6341
362	28.1705
361	30.0303
360	28.353
359	28.2038
358	29.5315
357	27.6184
356	28.8042
355	29.103
354	27.0162
353	29.2917
352	27.4817
351	27.4012
350	29.0238
349	26.6187
348	27.731
347	27.7698
346	26.9657
345	28.6786
344	26.6527
343	26.8119
342	28.4863
341	25.8998
340	24.8923
339	26.9902
338	25.8722
337	24.4527
336	27.0128
335	25.7895
334	25.5115
333	26.9924
332	25.3758
331	26.6574
330	26.7657
329	25.2423
328	27.35
327	25.7476
326	25.5874
325	27.5212
324	25.5435
323	26.735
322	27.0904
321	26.1313
320	28.0714
319	26.6491
318	26.4088
317	28.0456
316	26.6362
315	27.6947
314	27.144
313	26.0361
312	28.9761
311	27.002
310	27.3276
309	28.6357
308	26.2982
307	29.1532
306	28.4173
305	27.523
304	30.0214
303	28.1269
302	28.2058
301	30.5774
300	27.9143
299	30.6252
298	29.8425
297	28.8482
296	31.6293
295	29.5706
294	30.9214
293	32.0281
292	30.2759
291	32.6377
290	31.9832
289	30.9283
288	34.5823
287	32.0072
286	32.6811
285	34.3923
284	31.6908
283	35.0127
282	33.7219
281	32.5494
280	35.5462
279	32.9154
278	33.879
277	34.7527
276	32.3053
275	35.2483
274	33.6493
273	32.9014
272	35.9355
271	32.7991
270	33.6459
269	34.815
268	31.9015
267	34.6198
266	32.7451
265	32.0626
264	34.069
263	30.9713
262	32.1191
261	32.1773
260	29.9401
259	32.1467
258	30.0383
257	29.5416
256	31.5103
255	28.7438
254	29.602
253	29.4148
252	27.8075
251	29.7833
250	28.0663
249	27.4226
248	29.0772
247	26.5417
246	28.4699
245	27.2888
244	25.8798
243	28.5486
242	26.6645
241	26.3981
240	27.5846
239	24.719
238	26.3972
237	26.6204
236	24.6454
235	27.0337
234	24.4467
233	25.47
232	26.3585
231	24.2796
230	26.1123
229	25.2273
228	24.0659
227	26.0633
226	23.8861
225	24.4406
224	25.3489
223	23.3118
222	25.0055
221	23.8202
220	22.9432
219	25.2804
218	22.3633
217	23.2533
216	24.2718
215	21.208
214	23.7083
213	22.6517
212	21.327
211	23.1359
210	21.091
209	21.5971
208	22.6167
207	19.3666
206	22.3858
205	21.0494
204	19.9162
203	22.7442
202	19.3011
201	21.3457
200	20.6258



[コメント情報]
試料名	h2
オペレーター	
所属	
コメント	

[データ情報]
作成日時	2017/11/02 13:50
スタート	2700 nm
エンド	200 nm
データ間隔	1 nm
データ数	2501    

[測定情報]
機種名	V-770
シリアル番号	A034761801
測光モード	%R
UV/Vis バンド幅	1 nm
NIR バンド幅	4 nm
レスポンス	Quick
走査速度	1000 nm/min
光源	自動
光源切換	340 nm
回折格子切換	850 nm

[付属品情報]
付属品名	SLM-737
シリアル番号	B002161126
