TITLE	
DATA TYPE	
ORIGIN	JASCO
OWNER	
DATE	17/11/02
TIME	13:17:00
SPECTROMETER/DATA SYSTEM	JASCO Corp., V-770, Rev. 1.00
RESOLUTION	
DELTAX	-1
XUNITS	NANOMETERS
YUNITS	TRANSMITTANCE
FIRSTX	2700
LASTX	200
NPOINTS	2501
FIRSTY	68.2973
MAXY	72.9873
MINY	-0.677276
XYDATA
2700	68.2973
2699	43.8052
2698	72.9873
2697	55.8687
2696	38.2258
2695	63.1088
2694	37.8889
2693	41.4849
2692	67.3951
2691	56.6551
2690	47.7868
2689	51.2262
2688	52.3699
2687	51.353
2686	55.9197
2685	50.2308
2684	57.2218
2683	51.4599
2682	54.9072
2681	53.7161
2680	53.9853
2679	53.2331
2678	56.8155
2677	50.2726
2676	53.367
2675	53.8331
2674	53.2864
2673	52.9473
2672	52.3271
2671	55.7976
2670	52.9867
2669	53.5124
2668	56.7509
2667	54.8783
2666	54.339
2665	57.2214
2664	51
2663	53.589
2662	50.9418
2661	51.7087
2660	53.8603
2659	51.4965
2658	52.7212
2657	53.414
2656	52.7552
2655	55.9127
2654	52.6794
2653	53.5224
2652	53.5977
2651	53.0523
2650	52.7847
2649	53.3521
2648	52.9168
2647	53.4387
2646	51.2509
2645	51.6868
2644	54.7128
2643	51.3176
2642	53.6816
2641	53.6397
2640	51.9083
2639	53.6723
2638	51.2809
2637	52.8558
2636	54.5215
2635	51.9186
2634	52.228
2633	52.2106
2632	51.8677
2631	54.9288
2630	49.9054
2629	52.6402
2628	53.1462
2627	49.7477
2626	53.1151
2625	52.116
2624	53.0065
2623	53.4128
2622	51.3052
2621	54.2532
2620	55.9465
2619	50.9199
2618	54.9821
2617	51.0816
2616	52.6433
2615	54.9195
2614	50.1333
2613	51.829
2612	54.2826
2611	53.007
2610	53.8691
2609	53.8622
2608	52.4402
2607	52.725
2606	52.2988
2605	51.6911
2604	53.2607
2603	51.9172
2602	55.2584
2601	54.0899
2600	51.8724
2599	54.9086
2598	52.0466
2597	53.973
2596	53.8551
2595	51.0813
2594	54.4214
2593	52.3452
2592	51.2747
2591	53.3066
2590	51.5059
2589	52.1091
2588	52.1225
2587	52.3184
2586	54.6786
2585	53.4651
2584	52.0954
2583	53.6803
2582	49.4813
2581	53.254
2580	53.1372
2579	52.5805
2578	54.967
2577	51.6712
2576	53.1489
2575	53.2148
2574	52.3722
2573	53.8077
2572	55.119
2571	53.2907
2570	54.1371
2569	51.9472
2568	53.4651
2567	53.1038
2566	52.3125
2565	54.6823
2564	52.6785
2563	51.7613
2562	54.4472
2561	50.4324
2560	52.4809
2559	54.0759
2558	52.291
2557	53.2881
2556	52.5398
2555	52.3511
2554	54.0797
2553	53.0436
2552	52.9486
2551	54.6543
2550	52.3596
2549	53.5071
2548	52.7641
2547	53.0061
2546	54.2282
2545	52.8998
2544	52.2483
2543	52.9622
2542	50.9867
2541	52.3434
2540	53.055
2539	51.9158
2538	52.8176
2537	52.5644
2536	52.6264
2535	52.5301
2534	52.0028
2533	54.1389
2532	51.7654
2531	52.5838
2530	53.1723
2529	53.282
2528	53.1579
2527	53.212
2526	52.4768
2525	53.6987
2524	52.7221
2523	52.5133
2522	52.7125
2521	52.0783
2520	53.3883
2519	52.4584
2518	52.4373
2517	52.9576
2516	52.9532
2515	51.616
2514	53.1152
2513	52.0469
2512	52.5565
2511	53.8042
2510	51.7702
2509	52.4998
2508	52.3428
2507	52.6877
2506	53.166
2505	52.7421
2504	52.7424
2503	52.2051
2502	52.4945
2501	53.0949
2500	52.3456
2499	52.1004
2498	53.385
2497	52.8064
2496	53.3666
2495	53.0067
2494	52.5823
2493	52.8206
2492	52.2114
2491	52.3348
2490	53.4061
2489	52.8423
2488	52.245
2487	52.6707
2486	52.7727
2485	52.7581
2484	52.3392
2483	52.3374
2482	53.1528
2481	52.0682
2480	53.3168
2479	53.2022
2478	52.6107
2477	52.7034
2476	52.4939
2475	52.5117
2474	53.0155
2473	53.2255
2472	52.9253
2471	52.8916
2470	52.7949
2469	52.9986
2468	51.8391
2467	51.9377
2466	52.9557
2465	52.5158
2464	52.9622
2463	52.5532
2462	52.2998
2461	53.3061
2460	52.2895
2459	52.4072
2458	53.1868
2457	52.4283
2456	52.7323
2455	51.82
2454	52.32
2453	52.997
2452	52.6418
2451	53.4168
2450	52.6994
2449	52.4634
2448	52.3128
2447	52.5174
2446	52.2536
2445	53.739
2444	52.4563
2443	52.2341
2442	52.8637
2441	52.1781
2440	53.1382
2439	52.2055
2438	52.2619
2437	52.8933
2436	53.0213
2435	53.3685
2434	52.9217
2433	52.4192
2432	52.3675
2431	52.9335
2430	52.2421
2429	53.0694
2428	52.8654
2427	51.9525
2426	52.7318
2425	52.2068
2424	52.7456
2423	52.6582
2422	52.5269
2421	52.9828
2420	52.677
2419	52.7541
2418	52.6232
2417	52.3765
2416	52.7509
2415	52.5444
2414	52.5249
2413	52.7333
2412	53.2343
2411	52.5717
2410	53.7122
2409	52.8076
2408	52.5926
2407	53.027
2406	52.4319
2405	52.1784
2404	52.6313
2403	53.0795
2402	53.4
2401	52.5686
2400	52.6522
2399	52.7559
2398	52.761
2397	52.4278
2396	52.6881
2395	52.8184
2394	52.8248
2393	52.533
2392	52.8993
2391	52.8761
2390	51.9487
2389	53.3493
2388	52.5156
2387	52.4276
2386	53.2652
2385	52.0689
2384	52.6562
2383	52.5564
2382	52.9585
2381	53.0074
2380	52.8277
2379	52.2599
2378	52.9754
2377	52.4507
2376	53.1641
2375	53.3883
2374	52.4197
2373	52.794
2372	52.2526
2371	52.7571
2370	52.5673
2369	52.6756
2368	53.0412
2367	53.0866
2366	52.1963
2365	52.689
2364	52.2381
2363	52.2077
2362	53.0377
2361	52.693
2360	52.9239
2359	53.4066
2358	52.7152
2357	53.5016
2356	53.1198
2355	53.0455
2354	53.0434
2353	52.8125
2352	53.0076
2351	52.8812
2350	52.257
2349	52.5185
2348	52.8122
2347	52.7494
2346	53.0342
2345	52.7525
2344	52.7697
2343	53.2504
2342	52.4897
2341	52.9934
2340	52.5054
2339	52.0553
2338	52.7448
2337	52.2884
2336	52.6828
2335	52.8233
2334	52.3911
2333	52.9298
2332	52.5895
2331	52.9658
2330	52.4404
2329	53.046
2328	52.475
2327	53.1673
2326	51.9265
2325	52.4942
2324	52.5329
2323	52.9634
2322	52.9941
2321	52.5862
2320	53.0397
2319	52.3832
2318	52.2698
2317	53.369
2316	52.2619
2315	52.5575
2314	53.0259
2313	52.5985
2312	52.3256
2311	53.0891
2310	52.8339
2309	52.9705
2308	52.5145
2307	52.5215
2306	53.019
2305	52.6735
2304	53.2371
2303	52.8052
2302	52.4717
2301	52.7804
2300	52.6475
2299	52.632
2298	52.8981
2297	51.8455
2296	53.2642
2295	53.0349
2294	53.0479
2293	52.7522
2292	52.5109
2291	53.0327
2290	52.8914
2289	52.1481
2288	52.6326
2287	52.4217
2286	51.9988
2285	53.4402
2284	52.2496
2283	52.6981
2282	52.7537
2281	52.3876
2280	53.1063
2279	53.0844
2278	52.7331
2277	52.6739
2276	52.1432
2275	53.0421
2274	52.4567
2273	52.6262
2272	53.0725
2271	52.5579
2270	52.5864
2269	52.966
2268	52.5061
2267	52.7322
2266	52.9604
2265	52.4763
2264	52.7265
2263	52.4919
2262	52.7907
2261	52.7571
2260	52.4932
2259	52.8802
2258	52.629
2257	52.5117
2256	52.697
2255	52.4747
2254	53.0433
2253	53.0115
2252	52.3737
2251	53.1548
2250	53.0729
2249	52.9607
2248	52.6609
2247	52.8946
2246	52.7833
2245	53.2708
2244	52.5935
2243	52.7353
2242	52.2747
2241	52.449
2240	53.1306
2239	52.4957
2238	52.4198
2237	52.8152
2236	52.6349
2235	52.7896
2234	52.8496
2233	52.8353
2232	53.052
2231	52.3939
2230	52.6663
2229	52.6254
2228	52.291
2227	52.8002
2226	52.7958
2225	52.5131
2224	53.1603
2223	52.9632
2222	52.7115
2221	53.2707
2220	52.8914
2219	53.0283
2218	52.8315
2217	52.4682
2216	53.1997
2215	52.4627
2214	52.6895
2213	53.2344
2212	52.399
2211	52.972
2210	52.892
2209	52.168
2208	52.7974
2207	52.4841
2206	52.6797
2205	52.6424
2204	52.3772
2203	52.3287
2202	52.9352
2201	52.4134
2200	52.9038
2199	52.688
2198	52.708
2197	52.6654
2196	52.5224
2195	52.8475
2194	53.0317
2193	52.562
2192	52.7847
2191	52.4965
2190	52.9596
2189	52.7561
2188	52.5945
2187	52.7207
2186	52.8848
2185	52.8378
2184	52.5809
2183	52.6553
2182	52.6277
2181	52.7776
2180	52.8076
2179	53.2703
2178	52.7431
2177	52.5386
2176	53.0819
2175	52.4185
2174	52.6174
2173	52.7207
2172	52.2586
2171	52.7673
2170	52.8068
2169	51.8294
2168	53.0566
2167	52.911
2166	53.1126
2165	52.7989
2164	52.9122
2163	52.3838
2162	52.8264
2161	52.7297
2160	52.755
2159	52.5387
2158	52.9406
2157	52.9317
2156	52.6696
2155	52.9479
2154	52.7936
2153	52.3358
2152	52.4411
2151	52.6883
2150	52.4229
2149	53.1416
2148	52.9844
2147	53.0563
2146	52.9081
2145	52.7219
2144	52.7058
2143	52.7578
2142	52.6727
2141	52.5527
2140	52.5221
2139	52.3819
2138	52.6943
2137	52.6995
2136	52.9124
2135	52.9128
2134	53.1169
2133	53.0223
2132	52.3344
2131	52.5237
2130	52.945
2129	52.2953
2128	52.6322
2127	52.5777
2126	52.6008
2125	52.9618
2124	53.0226
2123	52.5075
2122	52.7434
2121	52.6896
2120	52.7203
2119	52.7116
2118	52.6448
2117	52.7796
2116	52.5975
2115	52.5869
2114	52.8051
2113	52.9536
2112	52.6178
2111	52.4495
2110	52.2902
2109	52.6589
2108	52.6278
2107	52.6903
2106	52.6095
2105	52.5202
2104	52.8502
2103	53.0189
2102	53.0431
2101	52.8908
2100	52.6132
2099	52.5278
2098	52.6259
2097	52.6795
2096	52.9489
2095	52.8593
2094	52.933
2093	53.133
2092	52.4731
2091	52.9162
2090	52.5871
2089	52.5835
2088	52.641
2087	52.8045
2086	52.7527
2085	52.8656
2084	52.3922
2083	52.979
2082	52.5497
2081	52.5577
2080	52.7177
2079	52.4379
2078	52.3924
2077	52.8446
2076	52.7734
2075	52.5003
2074	52.6911
2073	52.6851
2072	52.3874
2071	52.5151
2070	52.6311
2069	52.4758
2068	52.8375
2067	52.1559
2066	52.9206
2065	52.6105
2064	52.8605
2063	53.0162
2062	52.5637
2061	52.9193
2060	52.5243
2059	52.2865
2058	52.8878
2057	52.8273
2056	52.6282
2055	53.0848
2054	52.684
2053	52.9341
2052	52.4622
2051	52.4919
2050	53.1731
2049	52.8502
2048	52.7767
2047	53.1163
2046	52.5698
2045	52.9091
2044	52.8332
2043	52.2102
2042	52.8102
2041	52.591
2040	52.7235
2039	53.1322
2038	52.7477
2037	53.0876
2036	52.6792
2035	52.7704
2034	52.9519
2033	52.8412
2032	52.6624
2031	53.2069
2030	52.9414
2029	53.0191
2028	52.8392
2027	52.6934
2026	52.7025
2025	52.0271
2024	52.4116
2023	53.0918
2022	52.7538
2021	52.8342
2020	52.7142
2019	52.5555
2018	52.8756
2017	52.8344
2016	52.3251
2015	52.7631
2014	53.0265
2013	52.7441
2012	52.9887
2011	52.5858
2010	53.1988
2009	52.7584
2008	52.5917
2007	53.2222
2006	52.5848
2005	52.6344
2004	52.9863
2003	52.6404
2002	53.3476
2001	52.9832
2000	52.6686
1999	52.8785
1998	52.088
1997	52.6644
1996	52.8892
1995	52.6514
1994	53.0669
1993	52.8593
1992	52.5809
1991	52.9055
1990	52.5015
1989	52.7903
1988	52.8312
1987	52.4241
1986	53.0472
1985	52.7447
1984	52.86
1983	53.166
1982	52.1854
1981	52.7118
1980	52.7137
1979	52.6295
1978	53.1155
1977	52.5223
1976	52.6668
1975	52.8734
1974	52.4396
1973	52.8626
1972	52.8857
1971	52.5662
1970	53.0171
1969	52.9806
1968	52.5519
1967	52.9118
1966	52.6279
1965	52.6077
1964	52.7497
1963	52.7189
1962	53.088
1961	52.6981
1960	52.5413
1959	52.9642
1958	52.5866
1957	52.5089
1956	52.6349
1955	52.507
1954	52.9936
1953	52.8873
1952	52.4742
1951	53.1783
1950	52.5256
1949	52.7608
1948	52.7976
1947	52.4347
1946	52.7167
1945	52.653
1944	52.7859
1943	53.0099
1942	52.4883
1941	52.8313
1940	52.9123
1939	52.6146
1938	52.7021
1937	52.9374
1936	52.617
1935	53.0285
1934	52.8351
1933	52.7402
1932	52.7982
1931	52.5151
1930	52.5893
1929	52.9226
1928	52.6395
1927	53.0008
1926	52.529
1925	52.7683
1924	52.6264
1923	52.3438
1922	52.8728
1921	52.8153
1920	52.5286
1919	52.9884
1918	52.7422
1917	52.4983
1916	52.9399
1915	52.7069
1914	53.0729
1913	52.6039
1912	52.9481
1911	53.0036
1910	52.643
1909	52.5615
1908	52.4663
1907	52.6388
1906	52.8204
1905	52.7953
1904	52.8493
1903	52.7521
1902	52.6918
1901	52.9167
1900	52.5409
1899	52.797
1898	52.8564
1897	52.4969
1896	52.9263
1895	52.5384
1894	52.5807
1893	52.6843
1892	52.4619
1891	52.4232
1890	52.7902
1889	52.8426
1888	52.9635
1887	52.8452
1886	52.5293
1885	52.5548
1884	52.7787
1883	52.7507
1882	52.9391
1881	52.4829
1880	52.6509
1879	53.0401
1878	52.3885
1877	52.8028
1876	52.8543
1875	52.7167
1874	53.3222
1873	52.6245
1872	53.0265
1871	52.499
1870	52.5514
1869	52.8863
1868	52.4969
1867	52.9476
1866	52.5867
1865	52.4916
1864	52.6242
1863	52.9356
1862	52.7943
1861	53.0416
1860	53.1476
1859	52.6669
1858	52.906
1857	52.6379
1856	52.4683
1855	53.0981
1854	52.9569
1853	53.0619
1852	52.9187
1851	52.342
1850	52.6985
1849	52.5091
1848	52.5466
1847	52.6432
1846	52.435
1845	52.8295
1844	52.6546
1843	52.6267
1842	52.8881
1841	52.702
1840	52.7952
1839	52.922
1838	52.6225
1837	52.9221
1836	52.6391
1835	52.5151
1834	52.8808
1833	52.6
1832	52.6103
1831	52.7795
1830	52.4467
1829	52.7838
1828	52.809
1827	52.4706
1826	52.9067
1825	52.5736
1824	52.5278
1823	52.6399
1822	52.4715
1821	52.7407
1820	52.7799
1819	52.7035
1818	52.6647
1817	52.4883
1816	52.4612
1815	52.5793
1814	52.4322
1813	52.7188
1812	52.5691
1811	52.4591
1810	52.6833
1809	52.5476
1808	52.6986
1807	52.7307
1806	52.6496
1805	52.6991
1804	52.5331
1803	52.6302
1802	52.7
1801	52.5193
1800	52.5898
1799	52.7185
1798	52.5344
1797	52.735
1796	52.4933
1795	52.226
1794	52.5117
1793	52.6424
1792	52.5821
1791	52.8268
1790	52.451
1789	52.51
1788	52.5318
1787	52.576
1786	52.4998
1785	52.5198
1784	52.414
1783	52.534
1782	52.3581
1781	52.5492
1780	52.5535
1779	52.4639
1778	52.6254
1777	52.4779
1776	52.4214
1775	52.5813
1774	52.4091
1773	52.7198
1772	52.5784
1771	52.4861
1770	52.5384
1769	52.3516
1768	52.5114
1767	52.7249
1766	52.5342
1765	52.4766
1764	52.6114
1763	52.4154
1762	52.707
1761	52.6292
1760	52.5911
1759	52.5742
1758	52.5361
1757	52.4711
1756	52.6217
1755	52.3818
1754	52.6974
1753	52.4144
1752	52.2812
1751	52.497
1750	52.5414
1749	52.5316
1748	52.5991
1747	52.424
1746	52.6492
1745	52.4147
1744	52.2524
1743	52.6293
1742	52.4301
1741	52.5066
1740	52.4547
1739	52.3868
1738	52.5377
1737	52.5305
1736	52.5216
1735	52.6323
1734	52.3937
1733	52.4799
1732	52.4679
1731	52.4553
1730	52.5849
1729	52.6776
1728	52.4385
1727	52.769
1726	52.5532
1725	52.601
1724	52.4797
1723	52.4306
1722	52.5289
1721	52.5774
1720	52.4855
1719	52.5604
1718	52.7265
1717	52.5587
1716	52.4969
1715	52.3819
1714	52.6143
1713	52.6794
1712	52.4274
1711	52.5798
1710	52.4792
1709	52.6945
1708	52.6608
1707	52.5067
1706	52.5435
1705	52.6289
1704	52.653
1703	52.4555
1702	52.5511
1701	52.4938
1700	52.3926
1699	52.543
1698	52.6447
1697	52.6154
1696	52.3358
1695	52.5817
1694	52.6126
1693	52.6139
1692	52.579
1691	52.4017
1690	52.5222
1689	52.5
1688	52.4259
1687	52.5534
1686	52.6512
1685	52.5834
1684	52.6217
1683	52.4
1682	52.5715
1681	52.4589
1680	52.5202
1679	52.4791
1678	52.6105
1677	52.4062
1676	52.5918
1675	52.5906
1674	52.4299
1673	52.6062
1672	52.4661
1671	52.5025
1670	52.4639
1669	52.4965
1668	52.5667
1667	52.4664
1666	52.3965
1665	52.4794
1664	52.4466
1663	52.4592
1662	52.5922
1661	52.4812
1660	52.3784
1659	52.4966
1658	52.457
1657	52.4389
1656	52.4822
1655	52.5703
1654	52.418
1653	52.481
1652	52.5626
1651	52.3952
1650	52.5043
1649	52.4926
1648	52.4425
1647	52.5299
1646	52.5377
1645	52.4848
1644	52.4304
1643	52.4869
1642	52.5195
1641	52.5732
1640	52.5631
1639	52.3864
1638	52.484
1637	52.4813
1636	52.5793
1635	52.558
1634	52.6808
1633	52.5534
1632	52.3435
1631	52.542
1630	52.5676
1629	52.4012
1628	52.5475
1627	52.4724
1626	52.6043
1625	52.4851
1624	52.4508
1623	52.4846
1622	52.4145
1621	52.3489
1620	52.5565
1619	52.4308
1618	52.3155
1617	52.5764
1616	52.4926
1615	52.4707
1614	52.4969
1613	52.4628
1612	52.432
1611	52.4214
1610	52.3646
1609	52.4585
1608	52.4569
1607	52.5472
1606	52.5787
1605	52.4963
1604	52.4388
1603	52.4504
1602	52.4365
1601	52.542
1600	52.4212
1599	52.5082
1598	52.4349
1597	52.3499
1596	52.5328
1595	52.4078
1594	52.4833
1593	52.4306
1592	52.3027
1591	52.481
1590	52.4162
1589	52.3669
1588	52.4996
1587	52.4649
1586	52.2898
1585	52.4309
1584	52.3639
1583	52.4177
1582	52.3898
1581	52.4617
1580	52.3651
1579	52.3655
1578	52.3823
1577	52.3399
1576	52.4271
1575	52.4784
1574	52.3561
1573	52.3146
1572	52.484
1571	52.4011
1570	52.5519
1569	52.4794
1568	52.3718
1567	52.3442
1566	52.428
1565	52.4974
1564	52.4202
1563	52.447
1562	52.4026
1561	52.3621
1560	52.3599
1559	52.4362
1558	52.3986
1557	52.4044
1556	52.4152
1555	52.3248
1554	52.3538
1553	52.3755
1552	52.2907
1551	52.3815
1550	52.3392
1549	52.4113
1548	52.3955
1547	52.4138
1546	52.3912
1545	52.3568
1544	52.3237
1543	52.348
1542	52.4467
1541	52.4416
1540	52.2921
1539	52.3458
1538	52.3847
1537	52.4505
1536	52.3858
1535	52.4258
1534	52.2944
1533	52.347
1532	52.4498
1531	52.261
1530	52.2604
1529	52.2733
1528	52.3258
1527	52.2732
1526	52.3883
1525	52.4023
1524	52.3294
1523	52.4366
1522	52.2885
1521	52.3365
1520	52.3206
1519	52.3572
1518	52.4586
1517	52.2467
1516	52.3146
1515	52.2928
1514	52.2405
1513	52.3398
1512	52.3383
1511	52.2134
1510	52.3196
1509	52.3646
1508	52.1665
1507	52.2969
1506	52.4073
1505	52.2974
1504	52.2488
1503	52.1825
1502	52.2504
1501	52.2466
1500	52.3595
1499	52.2242
1498	52.2581
1497	52.2842
1496	52.3088
1495	52.3355
1494	52.2651
1493	52.2365
1492	52.3987
1491	52.2962
1490	52.2772
1489	52.2955
1488	52.2473
1487	52.233
1486	52.2827
1485	52.2755
1484	52.2749
1483	52.2989
1482	52.218
1481	52.324
1480	52.3373
1479	52.2346
1478	52.1702
1477	52.1528
1476	52.2097
1475	52.1261
1474	52.2007
1473	52.2897
1472	52.2668
1471	52.194
1470	52.1511
1469	52.1892
1468	52.1313
1467	52.1948
1466	52.2654
1465	52.3505
1464	52.201
1463	52.2971
1462	52.2247
1461	52.2102
1460	52.1813
1459	52.2638
1458	52.2994
1457	52.2507
1456	52.1481
1455	52.1268
1454	52.0941
1453	52.1125
1452	52.1414
1451	52.24
1450	52.1499
1449	52.1271
1448	52.1988
1447	52.0699
1446	52.2655
1445	52.0913
1444	52.1501
1443	52.1249
1442	52.207
1441	52.3688
1440	52.2556
1439	52.1889
1438	52.193
1437	52.1372
1436	52.1502
1435	52.3437
1434	52.2237
1433	52.1285
1432	52.1319
1431	52.1204
1430	52.2304
1429	52.274
1428	52.1148
1427	52.1213
1426	52.1118
1425	52.1523
1424	52.054
1423	52.1577
1422	52.0889
1421	52.1733
1420	52.0941
1419	52.2044
1418	52.1935
1417	52.1604
1416	52.1194
1415	52.1342
1414	52.1022
1413	52.188
1412	52.1977
1411	52.2007
1410	52.1216
1409	52.2074
1408	52.1353
1407	52.2228
1406	52.098
1405	52.1852
1404	52.1028
1403	52.0694
1402	52.2344
1401	52.1856
1400	52.2157
1399	52.0075
1398	52.203
1397	52.0918
1396	52.0567
1395	52.1654
1394	51.9257
1393	52.0981
1392	52.205
1391	51.9248
1390	52.1942
1389	52.0208
1388	52.1258
1387	52.0911
1386	51.9975
1385	52.2227
1384	52.0703
1383	52.1767
1382	52.0556
1381	52.1387
1380	52.1592
1379	52.0894
1378	52.06
1377	52.0743
1376	52.156
1375	51.9737
1374	52.1558
1373	52.1159
1372	52.2195
1371	52.1387
1370	52.0957
1369	52.1555
1368	52.2438
1367	52.1102
1366	52.1171
1365	52.1414
1364	52.0683
1363	52.1486
1362	52.1653
1361	52.0777
1360	52.1006
1359	52.0071
1358	52.0171
1357	52.1791
1356	52.2093
1355	52.0909
1354	52.0386
1353	52.0627
1352	52.0787
1351	52.1347
1350	52.1489
1349	52.0336
1348	52.1098
1347	52.081
1346	52.0214
1345	52.1188
1344	51.9413
1343	52.1113
1342	52.1423
1341	52.1207
1340	52.0771
1339	52.1461
1338	51.9854
1337	52.2288
1336	52.0567
1335	52.1716
1334	52.0469
1333	52.0952
1332	52.1102
1331	52.0914
1330	51.965
1329	52.134
1328	52.0014
1327	51.9971
1326	52.0396
1325	51.9914
1324	52.092
1323	52.0402
1322	52.0351
1321	52.0851
1320	52.0087
1319	52.0698
1318	52.0574
1317	52.0355
1316	52.075
1315	52.0368
1314	52.0005
1313	52.0338
1312	52.007
1311	52.0451
1310	52.0908
1309	52.0105
1308	52.0749
1307	51.9473
1306	52.0452
1305	51.9902
1304	51.9569
1303	52.01
1302	52.0293
1301	51.9482
1300	51.9759
1299	52.0177
1298	51.9017
1297	51.9834
1296	52.0148
1295	51.9348
1294	52.0554
1293	51.9437
1292	51.9494
1291	52.0498
1290	51.9874
1289	52.0066
1288	51.9404
1287	51.978
1286	51.9942
1285	52.0139
1284	51.9746
1283	51.9996
1282	51.9857
1281	52.0846
1280	51.955
1279	51.9367
1278	52.0788
1277	51.9283
1276	51.9041
1275	51.996
1274	51.9199
1273	51.9792
1272	51.8739
1271	52.002
1270	51.9537
1269	51.8675
1268	51.9564
1267	51.939
1266	51.8214
1265	51.9118
1264	51.9238
1263	51.8393
1262	51.9183
1261	51.8023
1260	51.969
1259	51.7935
1258	51.8838
1257	51.8686
1256	51.962
1255	51.9138
1254	51.881
1253	51.8978
1252	51.8251
1251	51.8659
1250	51.9692
1249	51.8774
1248	51.8866
1247	51.9423
1246	51.8894
1245	51.8722
1244	51.8574
1243	51.8915
1242	51.8521
1241	51.852
1240	51.8621
1239	51.8779
1238	51.7829
1237	51.8294
1236	51.8492
1235	51.8014
1234	51.8232
1233	51.7902
1232	51.7619
1231	51.8123
1230	51.8172
1229	51.7833
1228	51.8162
1227	51.7562
1226	51.7871
1225	51.8865
1224	51.7476
1223	51.907
1222	51.8249
1221	51.8998
1220	51.9072
1219	51.8266
1218	51.8393
1217	51.7629
1216	51.6836
1215	51.7816
1214	51.844
1213	51.7562
1212	51.8469
1211	51.7164
1210	51.7132
1209	51.7706
1208	51.777
1207	51.7959
1206	51.7329
1205	51.7622
1204	51.7752
1203	51.8335
1202	51.7828
1201	51.7952
1200	51.7403
1199	51.8042
1198	51.6886
1197	51.7498
1196	51.5955
1195	51.7183
1194	51.7241
1193	51.6652
1192	51.7352
1191	51.6793
1190	51.7183
1189	51.6759
1188	51.5991
1187	51.7395
1186	51.5978
1185	51.6879
1184	51.7697
1183	51.64
1182	51.6395
1181	51.6002
1180	51.6583
1179	51.6616
1178	51.5308
1177	51.4421
1176	51.5043
1175	51.3838
1174	51.2962
1173	51.3525
1172	51.1768
1171	51.2039
1170	51.2148
1169	51.0349
1168	51.0263
1167	50.9106
1166	50.8463
1165	50.8646
1164	50.8147
1163	50.7797
1162	50.6168
1161	50.6045
1160	50.5567
1159	50.411
1158	50.3512
1157	50.2398
1156	50.1791
1155	50.0779
1154	49.9923
1153	49.9563
1152	49.9367
1151	49.704
1150	49.687
1149	49.5895
1148	49.3566
1147	49.3161
1146	49.2176
1145	49.0934
1144	49.0237
1143	48.9048
1142	48.7765
1141	48.7303
1140	48.5645
1139	48.438
1138	48.38
1137	48.2815
1136	48.1067
1135	47.9131
1134	47.7833
1133	47.6304
1132	47.4748
1131	47.4863
1130	47.202
1129	47.134
1128	46.9786
1127	46.7919
1126	46.7194
1125	46.5679
1124	46.4949
1123	46.2748
1122	45.9472
1121	45.9072
1120	45.7125
1119	45.616
1118	45.3977
1117	45.2803
1116	45.0525
1115	44.7631
1114	44.6068
1113	44.4691
1112	44.4464
1111	44.074
1110	43.996
1109	43.7328
1108	43.4235
1107	43.2861
1106	43.0341
1105	42.8725
1104	42.733
1103	42.4212
1102	42.2292
1101	41.894
1100	41.6784
1099	41.4279
1098	41.1205
1097	41.0313
1096	40.5769
1095	40.3179
1094	40.1012
1093	39.7484
1092	39.5218
1091	39.2163
1090	38.8584
1089	38.6245
1088	38.2638
1087	37.9456
1086	37.6725
1085	37.4272
1084	37.1346
1083	36.6993
1082	36.2852
1081	36.0656
1080	35.7455
1079	35.2749
1078	35.11
1077	34.5209
1076	34.374
1075	33.9005
1074	33.4275
1073	33.2262
1072	32.7054
1071	32.3194
1070	31.9839
1069	31.4112
1068	31.0883
1067	30.7391
1066	30.1583
1065	29.8924
1064	29.1123
1063	28.5557
1062	28.0921
1061	27.3928
1060	26.5811
1059	26.0349
1058	25.2526
1057	24.7347
1056	23.9704
1055	23.4278
1054	22.8518
1053	22.1644
1052	21.7091
1051	21.0083
1050	20.3834
1049	19.7009
1048	19.0853
1047	18.6319
1046	18.0296
1045	17.2644
1044	16.7937
1043	16.1601
1042	15.5197
1041	15.0672
1040	14.447
1039	13.9787
1038	13.409
1037	12.7287
1036	12.4546
1035	11.8994
1034	11.3534
1033	10.9806
1032	10.3859
1031	9.96623
1030	9.54822
1029	8.9964
1028	8.83377
1027	8.21938
1026	7.96068
1025	7.59458
1024	7.14141
1023	6.70221
1022	6.48875
1021	6.07546
1020	5.99517
1019	5.48084
1018	5.19185
1017	5.15892
1016	4.73448
1015	4.44568
1014	4.2523
1013	4.00239
1012	3.8859
1011	3.38141
1010	3.27019
1009	3.27411
1008	2.82636
1007	2.66846
1006	2.74052
1005	2.43647
1004	2.35482
1003	2.22243
1002	2.00561
1001	1.8328
1000	1.65833
999	1.60415
998	1.5432
997	1.40068
996	1.39439
995	1.0432
994	1.21968
993	1.03243
992	0.86926
991	1.00908
990	0.732049
989	0.840691
988	0.784315
987	0.655881
986	0.46593
985	0.592125
984	0.408514
983	0.564642
982	0.521183
981	0.236057
980	0.576604
979	0.194994
978	0.376815
977	0.239902
976	0.263367
975	0.291632
974	0.312122
973	0.0490305
972	0.323356
971	0.042487
970	0.165928
969	0.234375
968	0.0174973
967	0.110497
966	0.207427
965	0.0181705
964	0.191175
963	0.0978335
962	0.031937
961	0.0111183
960	-0.0401188
959	0.184929
958	-0.0194772
957	0.0568056
956	0.186229
955	-0.0979534
954	0.146925
953	0.0374241
952	-0.0451014
951	0.163185
950	0.16052
949	0.12731
948	0.158486
947	-0.0822802
946	0.0788066
945	0.0385866
944	0.00359061
943	0.0981498
942	-0.195691
941	0.208131
940	0.220542
939	-0.068573
938	0.189338
937	-0.125704
936	-0.0143876
935	0.283489
934	-0.187191
933	0.195051
932	0.0485722
931	-0.0344295
930	0.223541
929	-0.305165
928	0.358375
927	0.0847559
926	0.0646612
925	0.322268
924	-0.104226
923	-0.114194
922	0.197301
921	-0.265526
920	-0.163656
919	0.229103
918	-0.110124
917	0.239976
916	-0.0647909
915	0.0688399
914	0.0226758
913	0.32222
912	0.0390527
911	0.17651
910	-0.08319
909	0.251491
908	-0.418661
907	-0.341294
906	0.282093
905	0.00486768
904	0.449472
903	0.231311
902	-0.306728
901	-0.199442
900	-0.0332507
899	0.0797585
898	-0.0908185
897	-0.317878
896	0.248328
895	0.300759
894	0.0802561
893	0.727868
892	-0.210377
891	0.454529
890	-0.0856311
889	-0.488552
888	0.683502
887	0.0536228
886	-0.10534
885	0.714613
884	-0.261229
883	0.369756
882	0.307278
881	-0.0391138
880	0.426942
879	0.211569
878	0.0117196
877	0.930413
876	0.0559802
875	0.146518
874	0.0744206
873	0.36283
872	0.276569
871	0.214354
870	0.00236268
869	0.561531
868	0.0538082
867	1.11527
866	0.3544
865	-0.379141
864	0.824301
863	0.325354
862	0.407103
861	0.131557
860	-0.129561
859	0.804344
858	0.0720904
857	0.291639
856	0.87992
855	-0.677276
854	0.202575
853	0.731155
852	-0.0474669
851	0.559436
850	0.0296172
849	0.0165608
848	-0.00337413
847	0.0442879
846	-0.0090054
845	0.0231192
844	0.0402631
843	-0.0131207
842	0.0435821
841	0.0062698
840	0.000351625
839	0.0506369
838	-0.0136824
837	0.0239817
836	0.0260955
835	-0.0220031
834	0.0429253
833	-0.00593823
832	0.00407796
831	0.0360416
830	-0.0243497
829	0.023582
828	0.0151153
827	-0.0194826
826	0.040343
825	-0.0138152
824	0.00619499
823	0.0301754
822	-0.0264451
821	0.0318566
820	-0.000211738
819	-0.0170301
818	0.0432451
817	-0.0227696
816	0.00824253
815	0.0239397
814	-0.029175
813	0.0343237
812	-0.00773813
811	-0.0121321
810	0.0336887
809	-0.0280078
808	0.0155431
807	0.0116992
806	-0.0243588
805	0.0315621
804	-0.0192564
803	-0.0046251
802	0.0284904
801	-0.0333828
800	0.0254216
799	-0.000355524
798	-0.0224242
797	0.0357072
796	-0.0276242
795	0.00637927
794	0.0228464
793	-0.0311589
792	0.0318127
791	-0.00484376
790	-0.0178053
789	0.0404719
788	-0.0272296
787	0.00971386
786	0.0174535
785	-0.0303718
784	0.0349152
783	-0.0108407
782	-0.0119204
781	0.0309537
780	-0.0287063
779	0.0168881
778	0.008916
777	-0.0247358
776	0.0358229
775	-0.0198836
774	-0.00171768
773	0.0279462
772	-0.0310535
771	0.0250341
770	-0.0017195
769	-0.0197339
768	0.0370297
767	-0.0264083
766	0.00565909
765	0.0231211
764	-0.0320025
763	0.0330922
762	-0.00572303
761	-0.0155806
760	0.0372576
759	-0.0287014
758	0.0106088
757	0.0132807
756	-0.0280051
755	0.0328968
754	-0.00987199
753	-0.00810723
752	0.0348241
751	-0.0295078
750	0.0200019
749	0.00976407
748	-0.0234849
747	0.0332526
746	-0.0186435
745	0.00120423
744	0.0260118
743	-0.0307427
742	0.0271505
741	-0.00128848
740	-0.0102302
739	0.0319979
738	-0.0289966
737	0.0217289
736	0.00746284
735	-0.0207233
734	0.0356762
733	-0.0199507
732	0.00262647
731	0.0259868
730	-0.0316847
729	0.0279215
728	-0.00445441
727	-0.0198917
726	0.0378904
725	-0.0267419
724	0.00763552
723	0.019234
722	-0.0304823
721	0.0341468
720	-0.00651867
719	-0.0133795
718	0.0362473
717	-0.0287235
716	0.0165608
715	0.0131738
714	-0.027074
713	0.0367319
712	-0.0143162
711	-0.00419325
710	0.0314655
709	-0.0273965
708	0.0223015
707	0.0063065
706	-0.0187722
705	0.0375503
704	-0.0191915
703	0.00801403
702	0.0284545
701	-0.0272952
700	0.0344583
699	-0.000842501
698	-0.013608
697	0.0404807
696	-0.0198887
695	0.0130284
694	0.0223126
693	-0.0271205
692	0.0386136
691	-0.00787651
690	-0.0149003
689	0.0315333
688	-0.0404199
687	0.00316375
686	-0.00783818
685	-0.0583327
684	0.00987454
683	-0.0529348
682	-0.0361583
681	-0.00133426
680	-0.060063
679	0.00264318
678	-0.0108341
677	-0.0177875
676	0.0451566
675	-0.0207662
674	0.00861039
673	0.0243012
672	-0.0345059
671	0.03177
670	-0.00796529
669	-0.018133
668	0.0368602
667	-0.0295592
666	0.0074881
665	0.0159137
664	-0.0292118
663	0.0330882
662	-0.0138017
661	-0.0106391
660	0.0294799
659	-0.0323712
658	0.0184426
657	0.00655991
656	-0.028115
655	0.0355298
654	-0.0229923
653	-0.00335918
652	0.0259209
651	-0.032078
650	0.0260455
649	-0.00644834
648	-0.0231073
647	0.0377139
646	-0.0280974
645	0.00543613
644	0.0188926
643	-0.0346085
642	0.0306982
641	-0.0094336
640	-0.0163334
639	0.0344185
638	-0.0319988
637	0.0094617
636	0.011127
635	-0.0294794
634	0.0311875
633	-0.0187492
632	-0.00850079
631	0.027137
630	-0.0339668
629	0.0174166
628	-0.000365657
627	-0.0239809
626	0.035485
625	-0.0259688
624	-0.00036721
623	0.0199949
622	-0.0347733
621	0.0273444
620	0.0084909
619	0.0118234
618	-0.0283447
617	0.0313147
616	-0.0174232
615	-0.00980433
614	0.026763
613	-0.0329153
612	0.0198909
611	-0.00161131
610	-0.0258145
609	0.0334438
608	-0.0281406
607	0.000618516
606	0.0216269
605	-0.0381424
604	0.0300054
603	-0.0101534
602	-0.0237981
601	0.036678
600	-0.0337829
599	0.00740312
598	0.011597
597	-0.0371882
596	0.0325839
595	-0.0172001
594	-0.0169674
593	0.0300113
592	-0.0349802
591	0.0138685
590	0.00230784
589	-0.0285038
588	0.0295546
587	-0.0271131
586	-0.00242524
585	0.0238439
584	-0.0368681
583	0.0221906
582	-0.00987711
581	-0.0270284
580	0.0350514
579	-0.032293
578	0.00215157
577	0.0160821
576	-0.0375379
575	0.0309528
574	-0.01333
573	-0.0214937
572	0.0286867
571	-0.03465
570	0.0102611
569	0.00783878
568	-0.0316848
567	0.0292939
566	-0.022119
565	-0.00752255
564	0.0236248
563	-0.0353448
562	0.0221348
561	-0.00435579
560	-0.0287481
559	0.0327523
558	-0.0300612
557	0.000543086
556	0.0193082
555	-0.0376339
554	0.0268413
553	-0.0129005
552	-0.0235236
551	0.0328146
550	-0.0346787
549	0.00759729
548	0.011781
547	-0.0335212
546	0.0318045
545	-0.0202599
544	-0.0133505
543	0.0267741
542	-0.0357682
541	0.0168911
540	-0.0008143
539	-0.0277617
538	0.0320181
537	-0.0308827
536	-0.000743292
535	0.0198307
534	-0.0391059
533	0.0280352
532	-0.0134263
531	-0.0233848
530	0.0350694
529	-0.0347781
528	0.00531975
527	0.0120755
526	-0.0347255
525	0.0316438
524	-0.0184619
523	-0.0135977
522	0.0258588
521	-0.0357604
520	0.0138071
519	-0.000521188
518	-0.0308326
517	0.0315886
516	-0.0280509
515	-0.00535597
514	0.0193376
513	-0.0405491
512	0.026252
511	-0.0107053
510	-0.0223663
509	-0.0100071
508	0.0235388
507	-0.0360141
506	0.0177477
505	-0.0045415
504	-0.0263998
503	0.0310569
502	-0.0313145
501	-0.00118962
500	0.0169854
499	-0.0410727
498	0.0269622
497	-0.0102743
496	-0.0250485
495	0.0327943
494	-0.0331505
493	0.00526533
492	0.0127643
491	-0.036666
490	0.0287865
489	-0.0189529
488	-0.016405
487	0.0256218
486	-0.0364158
485	0.0116919
484	0.0037268
483	-0.0316631
482	0.0294273
481	-0.0243769
480	-0.00487806
479	0.01967
478	-0.0358266
477	0.0224958
476	-0.0079032
475	-0.0274917
474	0.032274
473	-0.033179
472	0.00109595
471	0.0181891
470	-0.0387072
469	0.0280612
468	-0.0119559
467	-0.0218243
466	0.0334176
465	-0.0366703
464	0.00414296
463	0.0101798
462	-0.0367215
461	0.0276091
460	-0.0244864
459	-0.0181506
458	0.021636
457	-0.0403121
456	0.0117176
455	-0.00237239
454	-0.0366904
453	0.0244228
452	-0.0364059
451	-0.014963
450	0.032605
449	-0.0407661
448	-0.0041284
447	0.0053676
446	-0.045164
445	0.0215296
444	-0.0263546
443	-0.0271434
442	0.0244779
441	-0.0452894
440	0.00331813
439	-0.00162102
438	-0.0380161
437	0.0240255
436	-0.0294345
435	-0.0151468
434	0.0179976
433	-0.0404329
432	0.0145858
431	-0.0050681
430	-0.0298334
429	0.0266671
428	-0.0366026
427	-0.00826985
426	0.0123983
425	-0.0510425
424	0.0164518
423	-0.0244526
422	-0.037205
421	0.0265364
420	-0.0418087
419	-0.00207451
418	0.0110466
417	-0.047684
416	0.0199422
415	-0.0247551
414	-0.0304283
413	0.0198921
412	-0.0459395
411	0.00262181
410	0.0302774
409	-0.011014
408	-0.0191021
407	0.03276
406	-0.0323533
405	0.00727094
404	0.0117628
403	-0.0319733
402	0.0268046
401	-0.0214055
400	-0.0121777
399	0.0249704
398	-0.0394128
397	0.0109186
396	-0.0056619
395	-0.0343836
394	0.0243116
393	-0.0329632
392	-0.00555027
391	0.0171118
390	-0.0423824
389	0.0201903
388	-0.0102429
387	-0.0280449
386	0.0318789
385	-0.039869
384	-0.00259889
383	0.0109814
382	-0.0457856
381	0.0210829
380	-0.0226508
379	-0.0277733
378	0.0271032
377	-0.0471586
376	0.00179055
375	-0.00164264
374	-0.0454629
373	0.0194659
372	-0.0306276
371	-0.015076
370	0.0373728
369	-0.0198359
368	0.0192499
367	0.0244292
366	-0.0264697
365	0.0327592
364	-0.0111798
363	-0.0102243
362	0.030708
361	-0.0377605
360	0.00888687
359	0.00830429
358	-0.0345336
357	0.0235214
356	-0.0251269
355	-0.0124134
354	0.021151
353	-0.0467198
352	0.0109656
351	-0.00767951
350	-0.0336915
349	0.0204554
348	-0.0372965
347	-0.00606904
346	0.0115511
345	-0.0535665
344	0.0118816
343	-0.0200831
342	-0.0290516
341	0.0249771
340	0.0106383
339	-0.0279251
338	0.0214984
337	-0.0163902
336	-0.0100972
335	0.0212336
334	-0.0333809
333	0.0115271
332	0.0108634
331	-0.0283224
330	0.0285172
329	-0.0211983
328	-0.00454356
327	0.0232202
326	-0.0359693
325	0.0169046
324	-0.00209848
323	-0.0232119
322	0.0277822
321	-0.0259341
320	0.00284289
319	0.0237741
318	-0.0342224
317	0.0228764
316	-0.00608378
315	-0.0206962
314	0.0320432
313	-0.0323291
312	0.00227652
311	0.0173667
310	-0.0382704
309	0.0225104
308	-0.0136381
307	-0.0222527
306	0.0296685
305	-0.0334461
304	0.00212918
303	0.0110152
302	-0.0353179
301	0.0253818
300	-0.0144341
299	-0.0130374
298	0.0275789
297	-0.0368221
296	0.00716834
295	0.00760573
294	-0.0291369
293	0.026764
292	-0.0203527
291	-0.00735438
290	0.0260923
289	-0.0354715
288	0.0146915
287	0.00411569
286	-0.0254568
285	0.027787
284	-0.0275381
283	-0.00162377
282	0.0214642
281	-0.0367353
280	0.0229005
279	-0.00748767
278	-0.0221209
277	0.0319459
276	-0.0321314
275	0.00271944
274	0.0193468
273	-0.036898
272	0.0258596
271	-0.0107188
270	-0.0197457
269	0.0288249
268	-0.0339593
267	0.00477483
266	0.013494
265	-0.0344425
264	0.025948
263	-0.0150971
262	-0.0198751
261	0.0259003
260	-0.0387978
259	0.00738561
258	0.00473923
257	-0.0321218
256	0.0261349
255	-0.029823
254	-0.0107185
253	0.0188706
252	-0.0390853
251	0.0137755
250	-0.00283877
249	-0.0284078
248	0.027615
247	-0.0291033
246	-0.00540352
245	0.0175985
244	-0.0391981
243	0.0208182
242	-0.00845609
241	-0.0263035
240	0.0295589
239	-0.0310356
238	0.000606404
237	0.0148933
236	-0.0395646
235	0.021695
234	-0.0159097
233	-0.0241398
232	0.0294182
231	-0.0386712
230	0.00167067
229	0.0108959
228	-0.0361659
227	0.0261978
226	-0.0187673
225	-0.0178491
224	0.0263813
223	-0.0416572
222	0.00729672
221	0.000777012
220	-0.0407959
219	0.0211837
218	-0.0308902
217	-0.0179912
216	0.0148411
215	-0.0478326
214	0.00566482
213	-0.0137092
212	-0.03855
211	0.0154581
210	-0.041717
209	-0.0127084
208	0.00365481
207	-0.060602
206	0.00814625
205	-0.0283357
204	-0.0429504
203	0.0164142
202	-0.0605266
201	-0.0182467
200	-0.00368554



[コメント情報]
試料名	h3
オペレーター	
所属	
コメント	

[データ情報]
作成日時	2017/11/02 13:17
スタート	2700 nm
エンド	200 nm
データ間隔	1 nm
データ数	2501    

[測定情報]
機種名	V-770
シリアル番号	A034761801
測光モード	%T
UV/Vis バンド幅	1 nm
NIR バンド幅	4 nm
レスポンス	Quick
走査速度	1000 nm/min
光源	自動
光源切換	340 nm
回折格子切換	850 nm
