TITLE	
DATA TYPE	
ORIGIN	JASCO
OWNER	
DATE	17/11/02
TIME	14:29:00
SPECTROMETER/DATA SYSTEM	JASCO Corp., V-770, Rev. 1.00
RESOLUTION	
DELTAX	-1
XUNITS	NANOMETERS
YUNITS	REFLECTANCE
FIRSTX	2700
LASTX	200
NPOINTS	2501
FIRSTY	-157.882
MAXY	183.751
MINY	-1283.87
XYDATA
2700	-157.882
2699	-1283.87
2698	-39.5113
2697	183.751
2696	-2.6432
2695	45.8517
2694	-170.896
2693	-92.3119
2692	69.5527
2691	34.426
2690	-20.529
2689	21.7044
2688	39.4942
2687	0.590122
2686	91.9814
2685	-1.14179
2684	78.9123
2683	71.0402
2682	-9.08814
2681	72.576
2680	29.7966
2679	31.2384
2678	106.392
2677	-38.5794
2676	76.3639
2675	13.0063
2674	29.284
2673	95.2579
2672	27.3696
2671	42.747
2670	43.9628
2669	28.5228
2668	52.4897
2667	54.7154
2666	14.9781
2665	77.6364
2664	19.5998
2663	75.5102
2662	76.3993
2661	30.8587
2660	51.9059
2659	65.5851
2658	29.9496
2657	86.0193
2656	52.7181
2655	31.9125
2654	86.4251
2653	36.3491
2652	77.4887
2651	63.1244
2650	43.153
2649	61.5473
2648	50.565
2647	62.3137
2646	42.5971
2645	45.0691
2644	39.4927
2643	38.6386
2642	26.2077
2641	34.6294
2640	34.8926
2639	42.528
2638	52.1016
2637	32.09
2636	59.6454
2635	64.2197
2634	38.9153
2633	44.2205
2632	36.6652
2631	46.721
2630	87.0398
2629	27.0191
2628	53.5799
2627	50.551
2626	31.0372
2625	71.1915
2624	61.6977
2623	44.5246
2622	61.8904
2621	36.3542
2620	36.2318
2619	89.1822
2618	24.0549
2617	37.7743
2616	75.5545
2615	44.9577
2614	88.3547
2613	40.093
2612	47.0878
2611	57.2131
2610	43.19
2609	58.6793
2608	55.104
2607	53.0948
2606	34.0723
2605	30.123
2604	63.4602
2603	74.6504
2602	44.8905
2601	57.6191
2600	64.7751
2599	38.6271
2598	71.5927
2597	46.0487
2596	66.0227
2595	52.8746
2594	27.8213
2593	43.4726
2592	37.4159
2591	30.5361
2590	39.6396
2589	6.33349
2588	41.0483
2587	51.6608
2586	44.3193
2585	57.7217
2584	16.048
2583	34.5806
2582	37.594
2581	39.4855
2580	37.6236
2579	45.3293
2578	41.5419
2577	44.3421
2576	35.1376
2575	31.2632
2574	58.1357
2573	41.9929
2572	52.1502
2571	47.1839
2570	30.4937
2569	51.3983
2568	73.2115
2567	28.5832
2566	65.8285
2565	48.9488
2564	49.5551
2563	60.1543
2562	77.8829
2561	54.51
2560	43.3226
2559	53.3835
2558	59.5536
2557	37.5796
2556	46.219
2555	48.957
2554	49.3209
2553	37.5978
2552	43.9044
2551	51.6674
2550	71.0732
2549	59.768
2548	56.3763
2547	48.2733
2546	41.2381
2545	50.6666
2544	65.2866
2543	56.5512
2542	46.0202
2541	31.3076
2540	47.8508
2539	56.2306
2538	47.3914
2537	42.9355
2536	36.0277
2535	42.7712
2534	50.8312
2533	39.4561
2532	50.5753
2531	41.9577
2530	35.8912
2529	57.7249
2528	45.8758
2527	52.9825
2526	48.6718
2525	29.9513
2524	59.1814
2523	47.2844
2522	34.7658
2521	40.8079
2520	43.1655
2519	37.2265
2518	56.1919
2517	42.4194
2516	42.1872
2515	45.8987
2514	42.9062
2513	44.3827
2512	48.0426
2511	51.7063
2510	54.858
2509	45.7091
2508	53.6728
2507	50.0204
2506	44.1515
2505	59.842
2504	51.0615
2503	50.3697
2502	42.1127
2501	45.9597
2500	57.5809
2499	48.2205
2498	45.9757
2497	47.588
2496	55.885
2495	45.5591
2494	52.6229
2493	47.2932
2492	55.979
2491	43.7232
2490	45.1336
2489	46.2567
2488	47.4168
2487	47.2929
2486	38.3156
2485	40.2879
2484	55.1271
2483	53.0111
2482	41.6245
2481	54.35
2480	52.3793
2479	46.1694
2478	46.0591
2477	47.5905
2476	46.4247
2475	43.7729
2474	45.0992
2473	47.666
2472	44.0386
2471	48.4665
2470	52.1813
2469	38.6778
2468	52.8273
2467	49.8388
2466	36.9481
2465	50.9974
2464	47.5376
2463	52.2609
2462	52.1309
2461	49.4123
2460	44.8818
2459	48.326
2458	47.7495
2457	42.3129
2456	47.9225
2455	54.3171
2454	42.4004
2453	45.4927
2452	51.0403
2451	50.3197
2450	60.2778
2449	42.4974
2448	30.3159
2447	49.1945
2446	48.8592
2445	41.5594
2444	43.6814
2443	50.381
2442	49.7108
2441	44.8985
2440	42.0052
2439	46.4816
2438	46.2353
2437	46.1431
2436	50.8016
2435	48.6565
2434	46.4346
2433	49.1761
2432	35.4495
2431	46.8123
2430	35.5541
2429	49.5235
2428	47.0119
2427	45.6734
2426	50.5434
2425	44.9586
2424	49.9203
2423	55.6523
2422	42.2944
2421	53.9916
2420	43.6695
2419	40.6702
2418	50.4684
2417	49.689
2416	40.2384
2415	52.5025
2414	44.8226
2413	53.7132
2412	53.3441
2411	41.1893
2410	55.3975
2409	47.8657
2408	42.5899
2407	51.3288
2406	39.5246
2405	49.1762
2404	53.1908
2403	47.1205
2402	50.4423
2401	51.8769
2400	49.5233
2399	47.3058
2398	48.375
2397	43.3128
2396	52.7477
2395	40.406
2394	56.2771
2393	47.763
2392	45.1643
2391	48.9799
2390	42.6285
2389	42.7915
2388	52.6605
2387	43.5978
2386	55.53
2385	42.0306
2384	41.9224
2383	53.2724
2382	46.7222
2381	54.3375
2380	51.7267
2379	43.3471
2378	50.2696
2377	46.6315
2376	43.3508
2375	51.1767
2374	39.9154
2373	50.9261
2372	46.7042
2371	42.2548
2370	55.017
2369	42.4634
2368	44.425
2367	52.9553
2366	43.1654
2365	43.9463
2364	44.0301
2363	42.0117
2362	49.5234
2361	45.6995
2360	49.6972
2359	41.7565
2358	51.4937
2357	47.3645
2356	50.2556
2355	44.2948
2354	52.0241
2353	47.6335
2352	49.3102
2351	54.4836
2350	48.9384
2349	48.2097
2348	43.9323
2347	40.486
2346	53.8208
2345	47.927
2344	47.2889
2343	47.9974
2342	40.2638
2341	44.1512
2340	50.9053
2339	41.0301
2338	49.9608
2337	48.2618
2336	49.3709
2335	50.5812
2334	38.1528
2333	50.6127
2332	50.5882
2331	37.7071
2330	47.0678
2329	48.76
2328	41.7732
2327	53.1934
2326	38.881
2325	51.9872
2324	49.1254
2323	45.7577
2322	50.838
2321	46.5234
2320	48.1142
2319	60.4995
2318	42.7853
2317	45.373
2316	51.5405
2315	47.3005
2314	52.6012
2313	45.3832
2312	41.7798
2311	55.6485
2310	46.4294
2309	47.5743
2308	46.1877
2307	43.371
2306	52.5425
2305	51.0809
2304	39.353
2303	52.9976
2302	46.4037
2301	44.2834
2300	48.5413
2299	43.3529
2298	53.0399
2297	50.6596
2296	43.3819
2295	50.8671
2294	45.3726
2293	47.4426
2292	47.9444
2291	42.3052
2290	49.0688
2289	50.7168
2288	34.0536
2287	52.8775
2286	45.1649
2285	50.7892
2284	46.3043
2283	45.6328
2282	50.8083
2281	38.575
2280	50.8519
2279	56.9138
2278	45.6707
2277	46.7153
2276	50.6476
2275	43.3275
2274	51.949
2273	51.5962
2272	44.832
2271	49.4525
2270	47.941
2269	49.4691
2268	42.9493
2267	43.8181
2266	50.1202
2265	51.5553
2264	47.9806
2263	57.4498
2262	41.7339
2261	51.9531
2260	47.1775
2259	42.8206
2258	45.2728
2257	47.7947
2256	45.8295
2255	45.0113
2254	47.9998
2253	51.3825
2252	44.5042
2251	42.1041
2250	48.4285
2249	50.6047
2248	40.5356
2247	46.2986
2246	47.4846
2245	54.184
2244	52.4629
2243	41.8483
2242	49.7321
2241	52.8167
2240	44.8274
2239	47.9459
2238	47.6695
2237	46.0197
2236	49.7731
2235	45.6989
2234	48.9609
2233	44.2232
2232	42.7902
2231	47.4354
2230	44.9908
2229	44.8359
2228	51.6294
2227	46.8922
2226	48.8615
2225	39.2465
2224	47.2569
2223	53.5381
2222	45.3534
2221	47.5239
2220	46.815
2219	45.6028
2218	51.3379
2217	41.5089
2216	43.1204
2215	49.9767
2214	43.0055
2213	51.1932
2212	47.5382
2211	47.4535
2210	47.5807
2209	47.9038
2208	41.8166
2207	45.633
2206	45.6358
2205	52.6873
2204	44.7286
2203	46.9486
2202	51.7722
2201	44.5954
2200	48.251
2199	49.0894
2198	48.005
2197	44.8096
2196	45.4784
2195	48.3771
2194	49.2971
2193	44.6713
2192	43.6064
2191	51.7221
2190	47.5349
2189	46.4683
2188	46.7979
2187	47.7751
2186	47.716
2185	42.536
2184	52.85
2183	46.657
2182	42.7276
2181	47.593
2180	45.3817
2179	46.9204
2178	49.0978
2177	44.7236
2176	50.5059
2175	49.5793
2174	43.0509
2173	52.6967
2172	44.6686
2171	44.9014
2170	45.9702
2169	47.4484
2168	49.9198
2167	48.2056
2166	43.3911
2165	47.7784
2164	41.6717
2163	41.7355
2162	53.3022
2161	44.3777
2160	43.1256
2159	48.3263
2158	44.1483
2157	45.4738
2156	48.9896
2155	49.8057
2154	46.4841
2153	42.2005
2152	42.4388
2151	49.8182
2150	40.9584
2149	48.5794
2148	47.5379
2147	50.8121
2146	47.9254
2145	45.0073
2144	46.5397
2143	46.1807
2142	45.4254
2141	47.7446
2140	47.9379
2139	51.5208
2138	49.9258
2137	45.2804
2136	47.1404
2135	50.4132
2134	46.2221
2133	48.6639
2132	44.9025
2131	44.3428
2130	46.6795
2129	45.2872
2128	47.6685
2127	48.1036
2126	46.9743
2125	48.335
2124	44.4426
2123	42.4842
2122	47.1337
2121	47.7773
2120	52.165
2119	52.6293
2118	44.6563
2117	47.5374
2116	46.9758
2115	48.3773
2114	46.4949
2113	46.9055
2112	48.8634
2111	39.9321
2110	46.0489
2109	48.0649
2108	45.9893
2107	47.5283
2106	43.4022
2105	47.7271
2104	51.5459
2103	43.6347
2102	46.4137
2101	52.212
2100	43.8242
2099	45.3018
2098	49.8128
2097	47.6081
2096	48.1147
2095	45.0439
2094	46.4306
2093	51.8788
2092	45.9706
2091	47.4234
2090	47.3228
2089	43.8915
2088	52.4342
2087	46.4187
2086	42.0018
2085	50.0134
2084	44.3124
2083	46.4823
2082	49.6959
2081	47.5492
2080	50.0928
2079	46.7248
2078	42.853
2077	46.7205
2076	41.7812
2075	46.2995
2074	49.2337
2073	46.8312
2072	53.1395
2071	52.4365
2070	43.2061
2069	48.1771
2068	42.3388
2067	49.8366
2066	45.0139
2065	41.7834
2064	43.0722
2063	48.0413
2062	44.5266
2061	53.7945
2060	45.5128
2059	46.2827
2058	53.2065
2057	43.9529
2056	53.2903
2055	46.8233
2054	38.3886
2053	49.772
2052	46.1265
2051	51.4775
2050	44.4769
2049	44.3783
2048	49.2481
2047	45.3651
2046	49.2835
2045	48.5084
2044	45.5833
2043	48.5238
2042	49.2186
2041	42.2429
2040	47.8698
2039	44.6727
2038	46.8535
2037	50.3676
2036	46.3338
2035	46.708
2034	49.7748
2033	42.8881
2032	43.5232
2031	48.3451
2030	42.1878
2029	43.6094
2028	46.1937
2027	46.9459
2026	50.5661
2025	45.7941
2024	46.3696
2023	44.246
2022	42.6607
2021	54.1621
2020	44.3613
2019	43.6792
2018	47.7701
2017	46.7005
2016	49.8583
2015	41.811
2014	46.2945
2013	50.7579
2012	42.4116
2011	48.9129
2010	51.8638
2009	41.7368
2008	47.276
2007	46.2557
2006	46.493
2005	50.5859
2004	47.9801
2003	44.876
2002	48.3333
2001	43.9458
2000	50.5363
1999	47.3842
1998	43.8557
1997	54.5246
1996	43.2728
1995	47.705
1994	52.0757
1993	42.3243
1992	47.2064
1991	42.7161
1990	43.3621
1989	52.3734
1988	46.3738
1987	46.2303
1986	47.2736
1985	44.2681
1984	49.4192
1983	46.2931
1982	46.2339
1981	48.8338
1980	43.1193
1979	48.9371
1978	42.4956
1977	45.5085
1976	47.4815
1975	47.7863
1974	40.02
1973	48.8519
1972	42.1268
1971	45.4058
1970	49.671
1969	47.1147
1968	49.1146
1967	45.7348
1966	46.6693
1965	50.4805
1964	46.831
1963	45.9134
1962	47.4189
1961	42.1694
1960	48.9156
1959	50.0119
1958	45.8367
1957	48.7741
1956	44.3955
1955	50.8881
1954	48.0294
1953	43.5682
1952	49.659
1951	50.9137
1950	50.2849
1949	46.4672
1948	46.3063
1947	44.278
1946	49.8005
1945	42.7331
1944	49.6407
1943	45.1136
1942	49.4707
1941	48.1237
1940	45.0959
1939	45.9955
1938	47.3087
1937	44.6323
1936	48.6258
1935	44.2841
1934	47.1098
1933	45.2254
1932	43.7296
1931	44.9682
1930	47.0848
1929	45.8329
1928	48.8219
1927	49.0757
1926	48.8061
1925	44.4016
1924	44.7591
1923	41.345
1922	50.7463
1921	45.419
1920	47.7662
1919	44.0253
1918	47.7703
1917	47.7572
1916	48.4351
1915	46.889
1914	47.1047
1913	45.4285
1912	46.5212
1911	44.3572
1910	46.9569
1909	49.5569
1908	46.4441
1907	48.1186
1906	48.3325
1905	45.8353
1904	47.2454
1903	51.2041
1902	46.9482
1901	51.5982
1900	46.8669
1899	53.4083
1898	48.2971
1897	47.9622
1896	46.7807
1895	45.7087
1894	46.5577
1893	48.1164
1892	45.8969
1891	45.0971
1890	49.1103
1889	48.9087
1888	48.3715
1887	47.0962
1886	47.3886
1885	46.6836
1884	45.4489
1883	46.8204
1882	46.1096
1881	48.2136
1880	50.1972
1879	43.7499
1878	48.6569
1877	46.5502
1876	45.8802
1875	50.5449
1874	46.8341
1873	49.8661
1872	50.214
1871	46.9514
1870	47.1982
1869	47.6621
1868	44.0021
1867	46.5325
1866	44.0372
1865	48.1389
1864	49.1356
1863	42.6111
1862	46.2642
1861	48.7721
1860	46.4529
1859	48.177
1858	44.6857
1857	46.2984
1856	46.5656
1855	42.8244
1854	48.4037
1853	49.0991
1852	46.0445
1851	47.3615
1850	45.4935
1849	47.2256
1848	47.3665
1847	42.7281
1846	45.9419
1845	45.9403
1844	47.5498
1843	49.9217
1842	47.8604
1841	51.1616
1840	47.7619
1839	47.465
1838	46.6634
1837	45.8796
1836	48.0385
1835	48.8379
1834	46.8939
1833	47.6254
1832	45.4688
1831	44.1717
1830	47.0699
1829	47.3424
1828	49.4278
1827	46.8586
1826	47.6644
1825	48.522
1824	46.9166
1823	42.1462
1822	48.4501
1821	48.1806
1820	45.4553
1819	46.9454
1818	45.3153
1817	45.8079
1816	47.3914
1815	46.0299
1814	46.8279
1813	45.9339
1812	46.2049
1811	49.695
1810	47.6031
1809	44.3143
1808	48.7604
1807	45.7869
1806	48.003
1805	44.3588
1804	47.1858
1803	46.9487
1802	46.5292
1801	46.7501
1800	49.2515
1799	45.8265
1798	47.2128
1797	45.0272
1796	50.1063
1795	47.6132
1794	46.2899
1793	45.2211
1792	46.0863
1791	44.2822
1790	47.8091
1789	46.9365
1788	47.5995
1787	49.8002
1786	45.3967
1785	49.6143
1784	47.0103
1783	45.3224
1782	48.0344
1781	47.6376
1780	48.4368
1779	46.9242
1778	45.6201
1777	47.1358
1776	48.1149
1775	47.9521
1774	47.5392
1773	46.891
1772	46.4718
1771	50.0525
1770	47.366
1769	46.543
1768	47.5996
1767	47.1272
1766	46.9884
1765	46.8379
1764	47.4588
1763	48.4177
1762	45.9567
1761	47.4655
1760	46.2705
1759	45.4956
1758	49.5959
1757	44.0622
1756	47.5414
1755	47.9785
1754	45.9909
1753	48.7832
1752	47.8309
1751	45.3107
1750	49.119
1749	44.6326
1748	46.829
1747	48.5798
1746	45.6468
1745	45.4004
1744	46.9102
1743	46.7326
1742	48.7199
1741	47.263
1740	46.4597
1739	47.8721
1738	46.7771
1737	47.8628
1736	45.9523
1735	46.0906
1734	48.8322
1733	45.43
1732	47.7263
1731	48.3882
1730	46.5714
1729	48.1627
1728	48.8819
1727	46.3166
1726	48.4951
1725	46.2677
1724	48.1369
1723	48.0743
1722	47.7953
1721	48.849
1720	47.662
1719	45.8679
1718	47.9434
1717	46.9159
1716	47.941
1715	48.8136
1714	45.0856
1713	47.3864
1712	47.6816
1711	43.9179
1710	46.6702
1709	45.6407
1708	46.7791
1707	47.9827
1706	45.2929
1705	49.2389
1704	47.2511
1703	46.4648
1702	49.3453
1701	44.798
1700	48.4806
1699	47.3801
1698	46.4671
1697	48.6984
1696	48.7058
1695	45.9954
1694	47.6811
1693	45.8669
1692	48.2229
1691	49.4585
1690	45.8061
1689	48.9695
1688	44.0029
1687	47.81
1686	46.6561
1685	47.7015
1684	46.5223
1683	45.7231
1682	47.1625
1681	46.6393
1680	45.4768
1679	45.2188
1678	49.7436
1677	46.6193
1676	46.9667
1675	48.2175
1674	45.5308
1673	48.4386
1672	47.3111
1671	46.1265
1670	49.6231
1669	47.2458
1668	48.4442
1667	47.4598
1666	46.9724
1665	48.7433
1664	48.5718
1663	47.0455
1662	48.1513
1661	49.4395
1660	47.8896
1659	45.7383
1658	47.0639
1657	48.3746
1656	47.3432
1655	47.5677
1654	48.5338
1653	44.5406
1652	48.8287
1651	45.3131
1650	47.2824
1649	48.542
1648	45.634
1647	47.1647
1646	47.6142
1645	45.2997
1644	45.5042
1643	47.1865
1642	45.8493
1641	47.3109
1640	47.158
1639	43.9357
1638	49.6519
1637	46.1064
1636	46.6682
1635	48.4193
1634	47.9043
1633	46.4099
1632	46.5325
1631	46.2545
1630	49.8116
1629	46.7903
1628	47.1995
1627	47.1138
1626	46.9437
1625	48.6705
1624	47.9561
1623	46.0895
1622	46.899
1621	46.5244
1620	46.1096
1619	46.7022
1618	47.2599
1617	47.2554
1616	45.9127
1615	47.3338
1614	48.0194
1613	47.8792
1612	47.1379
1611	48.6386
1610	48.0296
1609	47.464
1608	46.1791
1607	45.7564
1606	46.7501
1605	46.0465
1604	46.4801
1603	46.5037
1602	48.0611
1601	48.7032
1600	46.7464
1599	47.4984
1598	47.7815
1597	46.2586
1596	47.7477
1595	47.573
1594	45.1202
1593	45.1571
1592	47.5731
1591	46.7813
1590	46.1958
1589	47.0916
1588	48.3748
1587	46.9385
1586	46.4053
1585	47.3952
1584	47.5863
1583	48.6604
1582	47.5136
1581	47.1898
1580	48.3056
1579	46.4623
1578	47.2886
1577	46.9433
1576	46.8552
1575	49.8139
1574	45.8949
1573	46.366
1572	49.1446
1571	47.0071
1570	49.1762
1569	46.6049
1568	46.3642
1567	49.4766
1566	48.6152
1565	46.6229
1564	48.0329
1563	45.9428
1562	48.0475
1561	48.4083
1560	47.0058
1559	48.3069
1558	47.2684
1557	47.2444
1556	48.3604
1555	47.331
1554	48.3929
1553	47.2522
1552	44.646
1551	48.1517
1550	46.6873
1549	48.0677
1548	47.6096
1547	46.0618
1546	48.6375
1545	47.6474
1544	47.1467
1543	47.444
1542	46.8198
1541	47.8112
1540	46.1251
1539	46.0245
1538	47.3023
1537	48.4359
1536	47.3882
1535	46.531
1534	45.9484
1533	47.2796
1532	48.0681
1531	47.6897
1530	48.4168
1529	47.8165
1528	47.5273
1527	48.3091
1526	46.5773
1525	48.6122
1524	50.3871
1523	46.5473
1522	46.448
1521	47.4345
1520	48.2111
1519	48.4164
1518	47.2568
1517	46.4772
1516	48.4511
1515	46.0311
1514	48.7462
1513	47.7785
1512	46.1847
1511	48.6198
1510	46.8381
1509	47.1135
1508	47.8215
1507	46.3684
1506	47.6117
1505	46.2669
1504	47.3825
1503	49.044
1502	46.7019
1501	47.253
1500	46.7903
1499	47.229
1498	48.063
1497	47.271
1496	47.1473
1495	48.4413
1494	47.6413
1493	47.11
1492	47.7542
1491	46.9199
1490	48.3625
1489	47.8288
1488	48.8178
1487	47.4929
1486	47.6127
1485	47.7726
1484	47.3594
1483	46.919
1482	47.4268
1481	46.4007
1480	45.6827
1479	47.9468
1478	46.6891
1477	47.134
1476	48.7944
1475	47.6725
1474	47.1683
1473	47.2539
1472	46.8998
1471	47.5997
1470	48.1271
1469	47.7968
1468	47.6826
1467	46.8865
1466	48.9661
1465	47.866
1464	47.3501
1463	47.7766
1462	47.772
1461	48.2172
1460	49.155
1459	47.5121
1458	48.1666
1457	47.8344
1456	46.1113
1455	48.902
1454	47.523
1453	46.8676
1452	47.251
1451	45.4792
1450	49.233
1449	48.2264
1448	45.4972
1447	48.6723
1446	47.6062
1445	48.1986
1444	48.5103
1443	46.6402
1442	47.5191
1441	46.1282
1440	46.2437
1439	45.5911
1438	46.8582
1437	47.9703
1436	49.0555
1435	47.9666
1434	47.5101
1433	47.05
1432	46.8177
1431	48.7804
1430	45.1448
1429	47.5416
1428	47.9436
1427	48.2473
1426	50.0562
1425	47.2779
1424	45.2711
1423	48.6194
1422	45.5104
1421	47.5986
1420	48.1243
1419	47.3656
1418	49.0918
1417	47.1278
1416	46.5365
1415	50.0063
1414	46.5634
1413	47.6683
1412	49.3464
1411	48.003
1410	48.8137
1409	46.9833
1408	48.0044
1407	48.5252
1406	46.5416
1405	48.1658
1404	46.9249
1403	47.4347
1402	48.8187
1401	46.567
1400	46.3254
1399	49.0523
1398	46.3631
1397	48.2873
1396	48.953
1395	45.7109
1394	48.4354
1393	47.826
1392	47.6448
1391	50.1486
1390	47.2273
1389	48.0457
1388	47.494
1387	46.441
1386	48.1115
1385	46.7575
1384	47.1251
1383	49.331
1382	46.8847
1381	47.8914
1380	47.942
1379	46.2552
1378	48.9425
1377	46.9245
1376	47.1086
1375	46.9379
1374	46.5618
1373	48.0642
1372	49.3148
1371	46.4326
1370	49.0087
1369	46.5869
1368	48.2736
1367	48.9756
1366	47.9256
1365	47.2705
1364	48.0606
1363	46.2886
1362	48.1268
1361	47.3137
1360	46.4285
1359	49.4563
1358	45.605
1357	47.9145
1356	49.5072
1355	45.8899
1354	49.0092
1353	47.8161
1352	47.5145
1351	49.8887
1350	46.6886
1349	47.1305
1348	48.076
1347	46.7258
1346	47.9744
1345	47.5358
1344	46.9227
1343	49.3015
1342	46.8596
1341	47.4827
1340	47.9887
1339	46.1236
1338	47.227
1337	47.9814
1336	47.6434
1335	50.2883
1334	47.1302
1333	47.8537
1332	47.1219
1331	47.8067
1330	48.7472
1329	47.9687
1328	47.5631
1327	48.5484
1326	48.8066
1325	48.0575
1324	47.2706
1323	47.4125
1322	48.2439
1321	48.848
1320	47.4636
1319	48.6643
1318	47.9677
1317	47.7023
1316	48.001
1315	48.0538
1314	48.7136
1313	46.8236
1312	46.7718
1311	47.9386
1310	48.5796
1309	47.0155
1308	48.9395
1307	47.41
1306	48.6139
1305	47.386
1304	46.7608
1303	49.3013
1302	48.6457
1301	47.1913
1300	48.6121
1299	47.4233
1298	48.308
1297	49.8032
1296	47.9151
1295	48.3749
1294	48.0865
1293	47.6233
1292	47.7319
1291	47.1841
1290	47.2796
1289	47.5727
1288	48.0211
1287	49.1614
1286	48.8566
1285	47.5693
1284	47.5873
1283	47.2542
1282	48.0282
1281	48.7458
1280	46.6846
1279	48.0315
1278	48.3752
1277	46.9295
1276	49.1951
1275	47.3606
1274	47.0236
1273	48.723
1272	47.1631
1271	48.7476
1270	46.4707
1269	46.8155
1268	50.5149
1267	47.0359
1266	47.8707
1265	48.7417
1264	46.8723
1263	48.9287
1262	48.0965
1261	49.0854
1260	49.2472
1259	47.646
1258	47.9726
1257	48.8763
1256	47.6064
1255	48.2905
1254	47.9099
1253	47.5355
1252	48.5584
1251	47.4078
1250	48.2936
1249	49.6525
1248	46.8027
1247	47.5379
1246	48.2305
1245	48.5397
1244	48.1843
1243	47.3161
1242	47.3203
1241	49.3134
1240	47.427
1239	47.8241
1238	47.6793
1237	49.7811
1236	47.9136
1235	47.8388
1234	47.103
1233	50.4745
1232	46.5225
1231	48.7878
1230	47.9529
1229	47.1596
1228	49.0928
1227	48.0325
1226	47.5994
1225	49.8268
1224	48.0521
1223	48.9341
1222	48.1094
1221	47.9064
1220	47.592
1219	47.8643
1218	48.4526
1217	48.8385
1216	48.2435
1215	48.4765
1214	48.6275
1213	46.8035
1212	48.8721
1211	46.7857
1210	48.2786
1209	49.8417
1208	48.0807
1207	48.0075
1206	48.2754
1205	47.5894
1204	49.9815
1203	47.2441
1202	47.2187
1201	50.0238
1200	47.3614
1199	49.1597
1198	48.4989
1197	46.8378
1196	47.7613
1195	47.594
1194	48.77
1193	48.3012
1192	47.5149
1191	49.7383
1190	48.2691
1189	48.3784
1188	49.2716
1187	47.2211
1186	48.2814
1185	48.9263
1184	47.8573
1183	48.2282
1182	48.0509
1181	47.6241
1180	48.0323
1179	49.854
1178	48.4546
1177	47.5472
1176	48.5273
1175	50.2754
1174	47.4044
1173	48.3138
1172	48.4893
1171	47.1788
1170	49.8077
1169	49.434
1168	47.6204
1167	48.502
1166	46.8269
1165	48.2927
1164	48.0177
1163	46.2895
1162	46.6737
1161	48.5886
1160	47.1571
1159	47.7532
1158	47.0491
1157	47.9079
1156	47.6024
1155	46.4988
1154	47.9159
1153	49.0473
1152	45.2112
1151	47.962
1150	47.1442
1149	45.3515
1148	47.9894
1147	46.4196
1146	47.5088
1145	47.3276
1144	46.2405
1143	46.924
1142	45.9153
1141	47.1915
1140	48.5269
1139	46.8174
1138	45.9365
1137	47.1291
1136	46.0855
1135	45.8853
1134	47.1793
1133	47.0115
1132	48.3266
1131	45.6518
1130	46.4248
1129	45.4097
1128	43.6761
1127	46.466
1126	44.8005
1125	45.2352
1124	45.4602
1123	44.2965
1122	45.5921
1121	45.0742
1120	44.5297
1119	45.3073
1118	45.0183
1117	45.235
1116	47.2046
1115	43.2939
1114	44.6635
1113	43.4678
1112	44.4115
1111	44.1637
1110	44.2372
1109	43.3503
1108	44.0251
1107	44.8042
1106	41.6876
1105	44.2135
1104	43.6063
1103	43.0946
1102	42.3819
1101	42.8002
1100	42.3989
1099	43.1217
1098	41.4338
1097	42.9208
1096	42.8074
1095	43.1463
1094	41.7852
1093	42.5613
1092	42.5834
1091	38.7345
1090	42.4205
1089	41.6795
1088	40.9775
1087	41.204
1086	41.1072
1085	40.1853
1084	41.3725
1083	39.791
1082	40.3926
1081	40.1714
1080	39.792
1079	42.0546
1078	39.5172
1077	38.0798
1076	40.2519
1075	39.1616
1074	40.2258
1073	40.2456
1072	38.3541
1071	39.815
1070	37.6044
1069	36.7977
1068	39.9625
1067	37.8171
1066	38.2413
1065	38.2772
1064	35.2616
1063	36.7312
1062	36.7233
1061	36.7809
1060	38.4065
1059	36.1874
1058	37.4674
1057	38.0741
1056	34.3964
1055	36.6895
1054	37.0414
1053	33.9301
1052	36.5615
1051	31.8054
1050	35.0429
1049	36.267
1048	33.5917
1047	35.9761
1046	34.0309
1045	35.0554
1044	38.5351
1043	33.7018
1042	35.3436
1041	34.3633
1040	35.2686
1039	34.5132
1038	35.4609
1037	32.665
1036	34.7038
1035	34.3844
1034	34.6134
1033	35.2549
1032	32.6803
1031	35.5
1030	30.7526
1029	32.3057
1028	34.7621
1027	32.0822
1026	34.1309
1025	32.8909
1024	31.4934
1023	33.8403
1022	33.4938
1021	33.6837
1020	35.2103
1019	31.908
1018	32.9188
1017	33.5068
1016	32.9356
1015	35.5481
1014	32.6335
1013	33.5241
1012	34.6185
1011	33.1936
1010	33.6163
1009	34.2388
1008	33.0521
1007	35.1849
1006	32.0442
1005	32.6717
1004	35.7614
1003	32.7764
1002	32.7441
1001	34.4894
1000	33.4201
999	34.0803
998	34.2246
997	33.4147
996	37.0874
995	33.3052
994	31.4662
993	35.3373
992	33.9426
991	36.7301
990	31.2711
989	35.7055
988	36.6097
987	31.0886
986	36.6408
985	37.589
984	31.0146
983	34.7416
982	32.6064
981	33.8838
980	38.5584
979	32.0266
978	34.7095
977	35.3652
976	34.0285
975	36.585
974	31.8923
973	33.489
972	37.7266
971	31.5419
970	34.3479
969	33.0529
968	33.038
967	34.7845
966	33.3601
965	34.4696
964	36.748
963	30.48
962	35.4776
961	37.4371
960	36.306
959	38.3654
958	33.5327
957	34.1888
956	35.691
955	29.6717
954	31.6696
953	38.3973
952	32.6382
951	38.7264
950	34.5074
949	31.892
948	35.2967
947	31.2815
946	38.3104
945	35.3943
944	33.6587
943	38.0579
942	27.0633
941	35.9117
940	36.5275
939	36.2376
938	36.3202
937	33.8162
936	33.7482
935	40.5447
934	32.1839
933	34.5077
932	38.3519
931	33.536
930	42.8015
929	27.0921
928	31.2662
927	40.3242
926	30.0404
925	32.7907
924	43.3028
923	30.4076
922	35.848
921	36.0154
920	28.7225
919	42.2714
918	36.7779
917	37.602
916	43.5884
915	36.7984
914	31.6415
913	38.379
912	32.8045
911	36.9652
910	33.7544
909	39.6279
908	38.4638
907	31.7963
906	48.313
905	44.1084
904	24.2056
903	46.0985
902	40.6728
901	34.0824
900	37.0061
899	25.3141
898	46.6194
897	38.6105
896	30.2215
895	53.4571
894	29.737
893	36.5949
892	44.9499
891	20.8403
890	39.1755
889	39.8809
888	33.9826
887	55.2966
886	30.7989
885	37.4213
884	60.0467
883	19.2072
882	61.9481
881	38.214
880	28.3037
879	45.1138
878	35.6437
877	46.6923
876	47.4742
875	15.7864
874	36.8906
873	42.0273
872	41.8855
871	47.0996
870	27.6055
869	17.362
868	51.3279
867	42.9142
866	33.7998
865	39.4124
864	44.9268
863	63.2462
862	19.8953
861	14.193
860	56.7209
859	32.259
858	43.6456
857	53.6112
856	44.2663
855	35.84
854	27.9735
853	49.1653
852	21.2181
851	38.1528
850	40.9122
849	40.4376
848	40.0401
847	41.0328
846	40.3265
845	39.539
844	42.1569
843	40.2084
842	40.4576
841	41.1043
840	40.6383
839	39.882
838	40.0344
837	40.6974
836	41.7775
835	39.6197
834	40.3481
833	40.4655
832	39.0875
831	40.8604
830	40.0147
829	39.8629
828	40.5027
827	38.4646
826	40.6145
825	40.7995
824	39.8406
823	40.4164
822	39.8236
821	39.9801
820	40.4077
819	39.4405
818	40.8088
817	39.925
816	39.8616
815	40.5988
814	39.6936
813	40.0479
812	40.2373
811	39.5225
810	41.1758
809	40.079
808	39.5865
807	40.3355
806	39.4451
805	40.0505
804	40.1959
803	39.0606
802	40.4884
801	39.747
800	39.3512
799	40.1931
798	39.3618
797	39.773
796	39.6673
795	38.7013
794	40.2675
793	39.8714
792	39.6154
791	40.4805
790	38.6674
789	39.9472
788	39.7612
787	39.0198
786	40.4594
785	38.9163
784	39.6666
783	40.3866
782	39.0061
781	40.0993
780	39.5376
779	39.2584
778	40.2079
777	38.388
776	39.6217
775	39.5659
774	38.8616
773	40.2407
772	38.8328
771	39.2702
770	40.6856
769	38.3407
768	39.8327
767	39.7517
766	38.3403
765	39.9766
764	39.063
763	38.9954
762	40.6204
761	38.8612
760	39.8815
759	39.3273
758	38.5666
757	39.8712
756	38.8058
755	38.8697
754	39.7692
753	38.4982
752	39.7607
751	38.9618
750	38.4458
749	40.0027
748	38.4072
747	39.1265
746	39.6259
745	38.4702
744	39.7396
743	39.3026
742	38.4764
741	39.9483
740	39.748
739	38.2558
738	39.8482
737	38.985
736	38.3297
735	39.986
734	38.5369
733	39.016
732	39.5095
731	38.1631
730	40.0559
729	38.8757
728	38.3309
727	39.9343
726	38.3862
725	39.3975
724	39.6506
723	38.4042
722	39.6501
721	39.1732
720	38.87
719	39.9531
718	38.2561
717	39.4327
716	39.2762
715	38.4226
714	39.9229
713	38.5117
712	38.8439
711	40.2339
710	38.336
709	39.7356
708	39.7271
707	38.3614
706	40.3113
705	38.7639
704	39.2778
703	40.3331
702	38.393
701	39.9901
700	39.3444
699	38.3116
698	40.2762
697	38.5776
696	39.046
695	40.1957
694	38.4275
693	39.8829
692	39.3993
691	38.5829
690	40.2533
689	38.3588
688	38.7088
687	39.6979
686	37.7746
685	39.379
684	38.4156
683	37.7147
682	39.7259
681	37.3751
680	38.4307
679	39.0584
678	37.824
677	39.913
676	39.1373
675	38.909
674	40.5808
673	38.3464
672	39.3372
671	39.6216
670	38.3966
669	39.9466
668	38.8005
667	38.6
666	40.1627
665	38.2754
664	39.4425
663	39.7086
662	38.1898
661	40.4103
660	38.5379
659	38.9917
658	40.3196
657	38.1294
656	39.9095
655	39.844
654	38.2487
653	40.7471
652	38.6748
651	39.1251
650	40.518
649	38.0795
648	39.9892
647	39.6563
646	38.4805
645	40.7845
644	38.7693
643	39.122
642	40.563
641	38.4892
640	40.2201
639	39.4938
638	38.5857
637	40.754
636	38.5405
635	39.2331
634	40.1564
633	38.3377
632	40.4298
631	39.5182
630	38.8516
629	41.1212
628	38.4976
627	39.5055
626	40.5475
625	38.5735
624	40.731
623	39.2721
622	38.9159
621	40.9017
620	39.024
619	41.4094
618	37.977
617	40.3575
616	40.4024
615	38.4477
614	41.422
613	39.04
612	39.2191
611	41.0529
610	38.33
609	40.5982
608	40.176
607	38.4582
606	41.5998
605	38.9488
604	39.6134
603	41.2319
602	38.4397
601	40.9197
600	40.2939
599	38.9534
598	41.5944
597	39.0912
596	39.9559
595	41.511
594	38.7911
593	41.311
592	40.0987
591	38.8756
590	41.8683
589	39.1036
588	40.2278
587	41.5063
586	38.7923
585	41.4423
584	40.0112
583	39.2702
582	41.9175
581	38.8326
580	40.8292
579	41.4904
578	38.7881
577	41.6357
576	40.0589
575	39.5992
574	42.4987
573	39.141
572	41.2053
571	41.4703
570	38.9313
569	42.3481
568	39.9396
567	40.1789
566	42.3144
565	39.2847
564	41.5009
563	41.4206
562	39.1971
561	42.4634
560	40.1772
559	40.372
558	42.5877
557	39.3949
556	41.6813
555	41.2814
554	39.5587
553	42.7761
552	40.2952
551	40.696
550	42.6871
549	39.6901
548	41.8531
547	41.7796
546	40.0607
545	42.8411
544	40.1422
543	40.9722
542	42.566
541	40.0542
540	42.4745
539	41.6387
538	40.4364
537	43.2978
536	40.3069
535	41.4685
534	42.5694
533	40.1545
532	43.1145
531	41.5898
530	41.105
529	43.5074
528	40.5656
527	42.2192
526	43.0689
525	40.3579
524	43.3184
523	41.6094
522	41.0599
521	43.6803
520	40.5328
519	42.4597
518	43.0365
517	40.7114
516	43.5528
515	41.5852
514	41.6928
513	44.2875
512	40.9278
511	43.0629
510	42.0217
509	42.3813
508	44.2236
507	41.2863
506	43.8042
505	42.9176
504	41.7175
503	44.5532
502	41.939
501	42.7178
500	44.215
499	41.777
498	44.2368
497	43.2505
496	42.3749
495	45.0897
494	42.2301
493	43.5212
492	44.467
491	41.764
490	44.6507
489	43.3926
488	43.0218
487	45.4062
486	42.5523
485	43.94
484	44.8973
483	42.4293
482	45.3461
481	43.6631
480	43.4858
479	45.903
478	42.7907
477	45.1991
476	44.9991
475	43.0461
474	45.8798
473	43.9725
472	44.3133
471	46.5923
470	43.1265
469	45.7586
468	45.6102
467	43.4924
466	46.8268
465	44.4218
464	44.5131
463	47.2672
462	43.6984
461	46.2445
460	46.0879
459	43.9477
458	47.4084
457	44.6805
456	45.2728
455	47.6772
454	44.0679
453	46.867
452	46.1254
451	44.3703
450	45.6578
449	46.8572
448	46.4062
447	45.9185
446	47.8467
445	46.3071
444	46.2664
443	47.8318
442	46.3513
441	47.7991
440	47.1628
439	46.4627
438	48.4815
437	47.261
436	47.1887
435	48.4918
434	47.4008
433	47.8851
432	48.7559
431	47.86
430	49.108
429	48.525
428	47.9145
427	49.5924
426	48.3813
425	49.1856
424	49.0133
423	48.4573
422	49.6708
421	49.2979
420	48.9589
419	50.5652
418	48.9934
417	49.7442
416	50.2789
415	49.9925
414	50.84
413	50.6684
412	50.7274
411	51.8471
410	52.1163
409	50.3695
408	52.1633
407	51.5707
406	51.9267
405	52.4903
404	52.1265
403	52.0377
402	53.9585
401	52.1699
400	53.6755
399	53.0124
398	53.2449
397	55.1076
396	53.4895
395	54.2085
394	55.2707
393	54.2403
392	55.5537
391	55.4378
390	55.726
389	57.0998
388	56.1941
387	56.8583
386	57.8309
385	56.2484
384	58.3067
383	57.8448
382	57.9773
381	60.0691
380	58.8195
379	60.116
378	61.0843
377	60.1904
376	61.1926
375	61.3048
374	62.2456
373	63.6816
372	62.3985
371	63.4342
370	64.0478
369	62.8093
368	66.4439
367	62.7462
366	63.7022
365	65.9288
364	62.2882
363	65.7359
362	63.2546
361	61.9678
360	65.1806
359	61.4909
358	62.2175
357	62.5932
356	60.2592
355	64.5249
354	60.6924
353	59.316
352	63.0773
351	59.0137
350	60.9306
349	62.1599
348	58.0778
347	63.2904
346	60.18
345	59.7066
344	62.2688
343	58.1848
342	60.3151
341	60.0292
340	60.4109
339	59.949
338	61.5088
337	57.8354
336	60.1567
335	60.9269
334	58.8557
333	62.0832
332	60.631
331	59.1656
330	62.4403
329	59.8198
328	61.5795
327	61.3937
326	58.279
325	62.3059
324	60.3458
323	59.5327
322	63.3154
321	60.2846
320	61.6508
319	62.5813
318	58.5715
317	63.1403
316	61.8499
315	60.6649
314	63.687
313	60.7905
312	63.3963
311	63.9096
310	61.2818
309	66.0269
308	62.8945
307	63.2045
306	66.1976
305	61.8315
304	66.21
303	66.4266
302	63.3643
301	67.7777
300	66.7007
299	66.3988
298	69.8103
297	65.99
296	69.0241
295	69.9428
294	68.2595
293	73.3546
292	71.6197
291	71.2173
290	75.2383
289	71.4562
288	75.533
287	76.5947
286	73.672
285	78.8713
284	75.3069
283	75.4453
282	78.3586
281	74.124
280	78.4921
279	77.8571
278	76.111
277	80.0964
276	76.8988
275	77.7215
274	80.1078
273	75.7901
272	79.8329
271	78.9994
270	76.3743
269	79.6557
268	75.6243
267	76.6314
266	78.1908
265	74.5631
264	77.066
263	75.3907
262	73.8275
261	77.391
260	73.6937
259	73.4874
258	75.3915
257	71.7687
256	73.8054
255	72.1862
254	69.7385
253	73.1831
252	69.6475
251	70.0371
250	71.8079
249	67.276
248	70.7057
247	69.6332
246	67.4717
245	69.6397
244	66.918
243	67.5524
242	69.0115
241	65.7799
240	67.8468
239	66.8363
238	65.7585
237	68.3376
236	64.6928
235	66.7445
234	67.4531
233	66.0517
232	68.7267
231	67.5796
230	67.1133
229	70.5281
228	67.9645
227	69.903
226	70.8295
225	67.9755
224	70.7659
223	68.8344
222	69.061
221	70.5413
220	68.4165
219	69.602
218	70.7048
217	68.356
216	69.6208
215	68.0993
214	68.8885
213	70.4511
212	67.5605
211	68.3907
210	69.2604
209	67.797
208	70.63
207	69.3485
206	69.0903
205	70.9956
204	66.3797
203	71.3728
202	70.4701
201	67.8638
200	70.4444



[コメント情報]
試料名	ryomen
オペレーター	
所属	
コメント	

[データ情報]
作成日時	2017/11/02 14:29
スタート	2700 nm
エンド	200 nm
データ間隔	1 nm
データ数	2501    

[測定情報]
機種名	V-770
シリアル番号	A034761801
測光モード	%R
UV/Vis バンド幅	1 nm
NIR バンド幅	4 nm
レスポンス	Quick
走査速度	1000 nm/min
光源	自動
光源切換	340 nm
回折格子切換	850 nm

[付属品情報]
付属品名	SLM-737
シリアル番号	B002161126
