TITLE	
DATA TYPE	
ORIGIN	JASCO
OWNER	
DATE	17/08/01
TIME	12:33:00
SPECTROMETER/DATA SYSTEM	JASCO Corp., V-770, Rev. 1.00
RESOLUTION	
DELTAX	-1
XUNITS	NANOMETERS
YUNITS	TRANSMITTANCE
FIRSTX	2300
LASTX	700
NPOINTS	1601
FIRSTY	31.9106
MAXY	35.8673
MINY	-0.759551
XYDATA
2300	31.9106
2299	31.761
2298	31.4339
2297	31.9329
2296	30.8997
2295	31.2615
2294	30.7777
2293	31.3749
2292	31.524
2291	31.5988
2290	31.6568
2289	31.5143
2288	31.2301
2287	30.8484
2286	30.6379
2285	31.2908
2284	31.2061
2283	31.7009
2282	31.175
2281	31.923
2280	31.1594
2279	30.7678
2278	31.6674
2277	30.7758
2276	31.6761
2275	31.7669
2274	31.7771
2273	31.7347
2272	31.0037
2271	31.2542
2270	31.5328
2269	31.2101
2268	31.1059
2267	31.2348
2266	31.2395
2265	31.5138
2264	31.3033
2263	31.1843
2262	31.6304
2261	31.4289
2260	30.8362
2259	30.9559
2258	31.983
2257	32.2815
2256	31.665
2255	31.1299
2254	31.0255
2253	31.1267
2252	31.6106
2251	31.8369
2250	31.5112
2249	31.6055
2248	31.464
2247	31.7679
2246	31.9463
2245	31.1392
2244	31.5204
2243	31.5473
2242	31.5947
2241	31.2064
2240	31.0796
2239	31.8056
2238	31.5084
2237	31.4247
2236	31.8014
2235	31.1626
2234	31.3447
2233	31.9525
2232	31.6698
2231	31.1544
2230	31.3575
2229	31.4058
2228	31.6068
2227	31.6281
2226	31.6121
2225	31.1894
2224	31.1451
2223	32.0556
2222	31.3028
2221	31.6093
2220	31.8706
2219	32.0263
2218	31.749
2217	31.6843
2216	31.5078
2215	31.1117
2214	31.7299
2213	31.4709
2212	31.1992
2211	31.7638
2210	31.5777
2209	31.5632
2208	31.7144
2207	32.1119
2206	31.2013
2205	31.6026
2204	32.1328
2203	31.8232
2202	31.0815
2201	31.1426
2200	31.4362
2199	31.3188
2198	31.7542
2197	31.5949
2196	31.5669
2195	31.622
2194	31.7582
2193	30.9949
2192	31.4546
2191	31.9795
2190	31.8839
2189	32.0964
2188	31.7641
2187	31.8674
2186	32.0211
2185	31.008
2184	31.3052
2183	31.7036
2182	32.2361
2181	31.8171
2180	32.1791
2179	31.6763
2178	32.089
2177	31.2002
2176	31.6353
2175	31.689
2174	31.9615
2173	31.9124
2172	31.8471
2171	31.6019
2170	31.8643
2169	31.7314
2168	31.8591
2167	31.5421
2166	31.8702
2165	31.7712
2164	32.1812
2163	31.6883
2162	32.1065
2161	31.8491
2160	31.1976
2159	31.6491
2158	31.4317
2157	31.9865
2156	31.8497
2155	32.0653
2154	32.0429
2153	31.4917
2152	31.9525
2151	31.9897
2150	32.304
2149	31.6073
2148	31.7893
2147	32.1846
2146	31.5237
2145	31.4962
2144	32.0222
2143	31.881
2142	31.8008
2141	31.7431
2140	31.6421
2139	31.7448
2138	31.7382
2137	32.2001
2136	31.7067
2135	32.0126
2134	31.864
2133	31.6753
2132	31.874
2131	31.6768
2130	31.5926
2129	31.5925
2128	32.0281
2127	31.8988
2126	31.6293
2125	31.8524
2124	32.2172
2123	31.934
2122	31.8723
2121	31.9147
2120	32.4819
2119	31.85
2118	31.7035
2117	31.7677
2116	31.7898
2115	31.7448
2114	31.7713
2113	31.9787
2112	31.9299
2111	31.8673
2110	32.1007
2109	32.054
2108	31.955
2107	32.0014
2106	32.2332
2105	31.4122
2104	31.8462
2103	31.4139
2102	31.664
2101	31.7375
2100	31.8914
2099	32.2272
2098	32.3552
2097	32.2638
2096	31.6715
2095	31.9619
2094	31.8886
2093	31.5806
2092	31.9454
2091	31.6884
2090	31.4005
2089	31.7969
2088	32.0114
2087	32.1146
2086	32.1062
2085	31.6653
2084	32.2206
2083	32.1625
2082	31.9776
2081	31.8473
2080	32.4568
2079	32.5142
2078	32.0723
2077	31.7891
2076	31.7935
2075	32.0573
2074	32.1913
2073	32.0125
2072	32.3596
2071	31.9439
2070	31.9813
2069	32.6109
2068	31.7424
2067	32.0388
2066	31.5777
2065	32.0151
2064	31.8969
2063	31.775
2062	32.056
2061	32.5353
2060	31.7398
2059	31.8058
2058	32.0905
2057	31.6361
2056	32.2324
2055	31.818
2054	31.8112
2053	32.1409
2052	31.9902
2051	31.8916
2050	32.1592
2049	32.3524
2048	32.3727
2047	32.2554
2046	32.0457
2045	31.8269
2044	31.7716
2043	32.0301
2042	32.0208
2041	32.2614
2040	32.0553
2039	32.5074
2038	32.3701
2037	32.0542
2036	32.3871
2035	32.0126
2034	32.0696
2033	31.8708
2032	32.0325
2031	32.4722
2030	32.1408
2029	31.8871
2028	32.0746
2027	31.7492
2026	32.0552
2025	31.6342
2024	32.3662
2023	32.3867
2022	32.4048
2021	32.4348
2020	31.9231
2019	31.804
2018	32.496
2017	32.1072
2016	32.3296
2015	32.1305
2014	32.0878
2013	32.1582
2012	32.1598
2011	32.3795
2010	32.3144
2009	32.4077
2008	32.3353
2007	31.9859
2006	32.4771
2005	32.303
2004	32.1678
2003	32.061
2002	32.1789
2001	32.2308
2000	32.2072
1999	32.3455
1998	32.126
1997	32.2748
1996	32.0727
1995	32.1632
1994	32.1695
1993	31.7986
1992	32.0438
1991	32.2769
1990	32.2421
1989	31.9741
1988	32.31
1987	32.3914
1986	32.4369
1985	32.2535
1984	32.1219
1983	32.3043
1982	32.3864
1981	32.6951
1980	31.8949
1979	32.3633
1978	32.0777
1977	32.2522
1976	32.2032
1975	32.5125
1974	32.377
1973	32.5698
1972	32.3529
1971	32.1023
1970	32.3681
1969	32.2059
1968	32.4581
1967	32.1578
1966	32.6198
1965	32.4103
1964	32.3282
1963	32.4454
1962	32.4267
1961	32.102
1960	32.2812
1959	32.0634
1958	32.4699
1957	32.2416
1956	32.0344
1955	32.6032
1954	32.3274
1953	32.5504
1952	32.1804
1951	32.0323
1950	32.2614
1949	32.4655
1948	32.6118
1947	32.3991
1946	32.4053
1945	32.4494
1944	32.2871
1943	32.7114
1942	32.5348
1941	32.4549
1940	32.362
1939	32.3585
1938	32.5411
1937	32.066
1936	32.2292
1935	32.2855
1934	32.5615
1933	32.2925
1932	32.7407
1931	32.5154
1930	32.6531
1929	32.2087
1928	32.1844
1927	32.4331
1926	32.4134
1925	32.6879
1924	32.495
1923	32.5109
1922	32.4646
1921	32.3134
1920	32.082
1919	32.3434
1918	32.5061
1917	32.6041
1916	32.6324
1915	32.5904
1914	32.3366
1913	32.4447
1912	32.334
1911	32.0483
1910	32.597
1909	32.7464
1908	32.3347
1907	32.6408
1906	32.4748
1905	32.4921
1904	32.4277
1903	32.4257
1902	32.4936
1901	32.3811
1900	32.2715
1899	32.5322
1898	32.5021
1897	32.5532
1896	32.5648
1895	32.787
1894	32.4299
1893	32.4886
1892	32.6363
1891	32.6124
1890	32.86
1889	32.4302
1888	32.526
1887	32.6335
1886	32.4658
1885	32.6753
1884	32.5418
1883	32.8137
1882	32.725
1881	32.5672
1880	32.4184
1879	32.5803
1878	32.6464
1877	32.6034
1876	32.6168
1875	32.6259
1874	32.8922
1873	32.6377
1872	32.6493
1871	32.4162
1870	32.607
1869	32.4883
1868	32.7803
1867	32.7106
1866	32.6392
1865	32.5946
1864	32.6699
1863	32.5624
1862	32.7088
1861	32.6816
1860	32.4518
1859	32.532
1858	32.695
1857	32.5839
1856	32.9373
1855	32.7421
1854	32.6454
1853	32.4514
1852	32.8191
1851	32.5686
1850	32.6643
1849	32.6427
1848	32.4911
1847	32.7148
1846	32.8464
1845	32.6539
1844	32.713
1843	32.6936
1842	32.5772
1841	32.4828
1840	32.6785
1839	32.6312
1838	32.7464
1837	32.6616
1836	32.6594
1835	32.7669
1834	32.7044
1833	32.5416
1832	32.8201
1831	32.651
1830	32.7299
1829	32.603
1828	32.7625
1827	32.6959
1826	32.6078
1825	32.6447
1824	32.7401
1823	32.6094
1822	32.8088
1821	32.8542
1820	32.6839
1819	32.5719
1818	32.8612
1817	32.5748
1816	32.787
1815	32.7997
1814	32.6996
1813	32.8136
1812	32.779
1811	32.664
1810	32.6397
1809	32.7496
1808	32.625
1807	32.7825
1806	32.5803
1805	32.974
1804	32.6321
1803	32.8821
1802	32.87
1801	32.8083
1800	32.6764
1799	32.8258
1798	32.5926
1797	32.5746
1796	32.7851
1795	32.6939
1794	32.9681
1793	32.6122
1792	32.6128
1791	32.9219
1790	32.5961
1789	32.8863
1788	32.7952
1787	32.9627
1786	32.7475
1785	32.7089
1784	32.8679
1783	32.7452
1782	32.7578
1781	32.8751
1780	32.7883
1779	32.8359
1778	32.6332
1777	32.8166
1776	32.676
1775	32.8586
1774	32.8197
1773	32.7465
1772	32.6634
1771	32.7098
1770	32.8159
1769	32.6643
1768	32.8121
1767	32.6416
1766	32.6749
1765	32.935
1764	32.594
1763	32.7316
1762	32.7732
1761	32.5889
1760	32.7612
1759	32.877
1758	32.7754
1757	32.7658
1756	32.5275
1755	32.8073
1754	32.6895
1753	32.7449
1752	32.8034
1751	32.7727
1750	32.7198
1749	32.7923
1748	32.7879
1747	32.8276
1746	32.7312
1745	32.9014
1744	32.9123
1743	32.6944
1742	32.8069
1741	32.676
1740	32.8428
1739	32.9188
1738	32.7535
1737	32.8602
1736	32.8805
1735	32.7216
1734	32.8208
1733	32.8464
1732	32.8146
1731	32.731
1730	32.8415
1729	32.7576
1728	32.8572
1727	32.7736
1726	32.8536
1725	32.6416
1724	32.9844
1723	32.7361
1722	32.7894
1721	32.8734
1720	32.8499
1719	32.8773
1718	32.8903
1717	32.7757
1716	33.0047
1715	32.7927
1714	32.929
1713	32.8088
1712	32.8984
1711	32.8689
1710	32.971
1709	32.8563
1708	32.8237
1707	33.0273
1706	32.775
1705	32.8567
1704	32.9258
1703	33.0499
1702	33.0138
1701	32.9479
1700	32.7822
1699	32.9332
1698	32.7803
1697	32.7021
1696	32.9597
1695	32.9019
1694	33.1422
1693	33.1538
1692	33.1093
1691	32.8124
1690	32.8098
1689	32.9147
1688	32.9722
1687	32.8628
1686	33.0025
1685	32.9094
1684	33.0144
1683	33.0392
1682	32.9029
1681	32.9353
1680	32.9167
1679	32.9267
1678	32.8448
1677	33.106
1676	32.9477
1675	32.813
1674	33.1017
1673	32.9096
1672	32.9151
1671	32.8624
1670	32.8596
1669	32.9961
1668	32.8116
1667	32.925
1666	32.9613
1665	33.0203
1664	32.7426
1663	32.8953
1662	32.8452
1661	32.8567
1660	33.0295
1659	32.9139
1658	33.0021
1657	32.8532
1656	32.9551
1655	32.9187
1654	32.9136
1653	32.9348
1652	33.1278
1651	33.0509
1650	32.9265
1649	33.0223
1648	32.9838
1647	32.9208
1646	32.9981
1645	33.0562
1644	32.9551
1643	33.0686
1642	33.1423
1641	33.0059
1640	33.0532
1639	33.0706
1638	32.9814
1637	32.9694
1636	33.1624
1635	33.0773
1634	33.2234
1633	32.9335
1632	32.8368
1631	33.0542
1630	33.0442
1629	32.9931
1628	33.0137
1627	33.1885
1626	32.9291
1625	32.7678
1624	33.0787
1623	33.0323
1622	33.1861
1621	33.0892
1620	33.0602
1619	33.0582
1618	32.8257
1617	33.2015
1616	33.0529
1615	33.0096
1614	33.1663
1613	33.0339
1612	33.0417
1611	33.1549
1610	32.967
1609	33.0855
1608	32.9456
1607	33.212
1606	33.1037
1605	33.1221
1604	33.2512
1603	33.0652
1602	33.1548
1601	33.1637
1600	32.8441
1599	32.898
1598	33.0964
1597	33.208
1596	32.9433
1595	33.0154
1594	33.0484
1593	33.1457
1592	33.0191
1591	33.1519
1590	33.0901
1589	33.1502
1588	33.0752
1587	33.2338
1586	33.1587
1585	33.0087
1584	33.2062
1583	32.9833
1582	33.1682
1581	33.0973
1580	33.0513
1579	33.2483
1578	33.1469
1577	33.0705
1576	33.185
1575	33.22
1574	33.2114
1573	33.0655
1572	33.187
1571	33.2189
1570	33.0019
1569	33.0045
1568	32.9496
1567	33.2649
1566	33.0939
1565	33.3463
1564	33.0445
1563	33.202
1562	33.2301
1561	33.1768
1560	33.0694
1559	33.0563
1558	33.2403
1557	33.1086
1556	33.1722
1555	33.1534
1554	33.0583
1553	33.0815
1552	33.1004
1551	33.1354
1550	33.1707
1549	33.0559
1548	33.1596
1547	33.3102
1546	33.1423
1545	33.0747
1544	33.1722
1543	33.2274
1542	33.1762
1541	33.232
1540	33.3371
1539	33.1523
1538	33.3604
1537	33.1547
1536	33.2827
1535	33.1818
1534	33.1713
1533	33.2937
1532	33.2831
1531	33.2868
1530	33.1773
1529	33.2399
1528	33.3051
1527	33.1804
1526	33.2656
1525	33.2592
1524	33.2833
1523	33.2874
1522	33.2191
1521	33.2033
1520	33.2682
1519	33.2075
1518	33.1098
1517	33.2941
1516	33.2852
1515	33.3133
1514	33.3171
1513	33.2873
1512	33.227
1511	33.3984
1510	33.2969
1509	33.2894
1508	33.3799
1507	33.2042
1506	33.4196
1505	33.1931
1504	33.1682
1503	33.3437
1502	33.2573
1501	33.3158
1500	33.2228
1499	33.3676
1498	33.2247
1497	33.3003
1496	33.2609
1495	33.4063
1494	33.3981
1493	33.1872
1492	33.3954
1491	33.3666
1490	33.2997
1489	33.2805
1488	33.3947
1487	33.1721
1486	33.392
1485	33.4527
1484	33.3876
1483	33.2747
1482	33.3968
1481	33.4213
1480	33.3141
1479	33.2802
1478	33.4071
1477	33.4508
1476	33.53
1475	33.4615
1474	33.3147
1473	33.4216
1472	33.3933
1471	33.3632
1470	33.5708
1469	33.419
1468	33.3669
1467	33.4826
1466	33.4015
1465	33.349
1464	33.3071
1463	33.4299
1462	33.446
1461	33.4377
1460	33.4905
1459	33.518
1458	33.5158
1457	33.3827
1456	33.3804
1455	33.4491
1454	33.4032
1453	33.526
1452	33.4382
1451	33.5448
1450	33.5234
1449	33.5066
1448	33.4896
1447	33.4522
1446	33.4222
1445	33.3874
1444	33.5169
1443	33.5936
1442	33.5235
1441	33.5094
1440	33.4785
1439	33.4151
1438	33.449
1437	33.565
1436	33.5275
1435	33.5266
1434	33.6034
1433	33.6196
1432	33.5088
1431	33.6164
1430	33.5957
1429	33.558
1428	33.5713
1427	33.5252
1426	33.4645
1425	33.5457
1424	33.4825
1423	33.5958
1422	33.5909
1421	33.6325
1420	33.6481
1419	33.6487
1418	33.4294
1417	33.6235
1416	33.6614
1415	33.5936
1414	33.6033
1413	33.6121
1412	33.6823
1411	33.5744
1410	33.5792
1409	33.6166
1408	33.5226
1407	33.5529
1406	33.7258
1405	33.6203
1404	33.628
1403	33.8251
1402	33.5351
1401	33.4559
1400	33.6511
1399	33.6106
1398	33.6243
1397	33.5652
1396	33.8073
1395	33.6517
1394	33.6639
1393	33.7485
1392	33.5758
1391	33.7046
1390	33.8645
1389	33.7597
1388	33.6634
1387	33.7594
1386	33.5835
1385	33.8891
1384	33.7023
1383	33.7599
1382	33.7535
1381	33.7195
1380	33.7857
1379	33.9263
1378	33.6638
1377	33.7811
1376	33.8179
1375	33.8214
1374	33.8151
1373	33.7663
1372	33.7246
1371	33.8801
1370	33.8172
1369	33.7127
1368	33.8044
1367	33.7777
1366	33.8814
1365	33.8356
1364	33.8925
1363	33.9773
1362	33.8762
1361	33.9246
1360	33.7968
1359	34.0048
1358	33.8685
1357	33.9254
1356	33.8178
1355	33.9755
1354	33.9789
1353	33.9492
1352	33.9879
1351	33.8883
1350	34.0713
1349	33.9073
1348	33.8971
1347	33.9731
1346	33.9933
1345	34.0489
1344	33.927
1343	33.966
1342	33.9779
1341	34.0246
1340	34.0203
1339	33.9959
1338	34.063
1337	33.9648
1336	33.9873
1335	34.0521
1334	34.1045
1333	34.0955
1332	33.9902
1331	34.1191
1330	34.0696
1329	34.098
1328	34.0464
1327	34.0078
1326	34.2113
1325	34.1755
1324	34.1656
1323	34.1985
1322	34.0248
1321	34.1302
1320	34.2961
1319	34.2341
1318	34.0942
1317	34.2457
1316	34.1219
1315	34.2403
1314	34.1292
1313	34.1291
1312	34.1738
1311	34.2042
1310	34.2479
1309	34.2525
1308	34.3325
1307	34.2467
1306	34.2343
1305	34.2564
1304	34.4064
1303	34.3298
1302	34.3576
1301	34.4194
1300	34.3499
1299	34.336
1298	34.3669
1297	34.3212
1296	34.3029
1295	34.3944
1294	34.3208
1293	34.3607
1292	34.3014
1291	34.4925
1290	34.3736
1289	34.3961
1288	34.5069
1287	34.4837
1286	34.4659
1285	34.4915
1284	34.5364
1283	34.5
1282	34.4687
1281	34.4617
1280	34.5222
1279	34.5719
1278	34.5717
1277	34.6021
1276	34.4646
1275	34.5513
1274	34.4887
1273	34.6865
1272	34.5373
1271	34.7663
1270	34.6629
1269	34.7656
1268	34.7281
1267	34.6209
1266	34.6947
1265	34.6705
1264	34.8
1263	34.6847
1262	34.7538
1261	34.7918
1260	34.7554
1259	34.6839
1258	34.7465
1257	34.7639
1256	34.8748
1255	34.9662
1254	34.8931
1253	34.8434
1252	34.8862
1251	34.7321
1250	34.9253
1249	34.7876
1248	34.8573
1247	34.8311
1246	34.9738
1245	34.9708
1244	34.9217
1243	34.8729
1242	34.8485
1241	34.9196
1240	35.0367
1239	34.9434
1238	35.018
1237	34.9957
1236	35.0133
1235	35.1144
1234	34.9947
1233	35.0747
1232	35.1596
1231	35.1682
1230	35.2342
1229	35.0929
1228	35.0571
1227	35.1398
1226	35.1359
1225	35.2096
1224	35.1541
1223	35.1902
1222	35.1681
1221	35.208
1220	35.1594
1219	35.2355
1218	35.2354
1217	35.158
1216	35.3051
1215	35.3594
1214	35.165
1213	35.3673
1212	35.3263
1211	35.3705
1210	35.3602
1209	35.3168
1208	35.43
1207	35.309
1206	35.3919
1205	35.3893
1204	35.4666
1203	35.3794
1202	35.4744
1201	35.5543
1200	35.4521
1199	35.4027
1198	35.5585
1197	35.5285
1196	35.5328
1195	35.5717
1194	35.5283
1193	35.5609
1192	35.527
1191	35.5281
1190	35.4697
1189	35.6593
1188	35.6347
1187	35.6988
1186	35.6888
1185	35.6997
1184	35.568
1183	35.5306
1182	35.5949
1181	35.7776
1180	35.7782
1179	35.615
1178	35.7827
1177	35.8673
1176	35.5241
1175	35.5838
1174	35.486
1173	35.6716
1172	35.6052
1171	35.5015
1170	35.5072
1169	35.4332
1168	35.4436
1167	35.4926
1166	35.5709
1165	35.4413
1164	35.4214
1163	35.3454
1162	35.3312
1161	35.2549
1160	35.2579
1159	35.2049
1158	35.184
1157	35.2459
1156	35.2007
1155	35.1417
1154	35.0188
1153	35.0142
1152	35.0131
1151	34.8164
1150	34.9535
1149	34.9095
1148	34.9207
1147	34.7868
1146	34.7432
1145	34.6115
1144	34.6714
1143	34.6712
1142	34.6457
1141	34.548
1140	34.4984
1139	34.3668
1138	34.2736
1137	34.2094
1136	34.2248
1135	34.1519
1134	34.1759
1133	34.02
1132	33.9053
1131	33.7603
1130	33.5712
1129	33.6245
1128	33.4848
1127	33.5032
1126	33.4828
1125	33.4045
1124	33.3677
1123	33.1884
1122	33.0495
1121	33.206
1120	32.8671
1119	32.8914
1118	32.7264
1117	32.6904
1116	32.4556
1115	32.4739
1114	32.2569
1113	32.2234
1112	32.1637
1111	31.9524
1110	31.8497
1109	31.6449
1108	31.52
1107	31.4136
1106	31.442
1105	31.2221
1104	31.0223
1103	30.9211
1102	30.8328
1101	30.6296
1100	30.3705
1099	30.268
1098	30.2545
1097	30.0364
1096	29.8911
1095	29.5509
1094	29.4196
1093	29.3297
1092	29.1331
1091	28.9239
1090	28.7045
1089	28.6362
1088	28.4106
1087	28.0973
1086	28.0434
1085	27.5942
1084	27.5088
1083	27.4061
1082	27.2109
1081	26.8771
1080	26.6894
1079	26.2579
1078	25.9962
1077	25.9262
1076	25.6846
1075	25.404
1074	25.2027
1073	24.9228
1072	24.5805
1071	24.2884
1070	24.1039
1069	23.8608
1068	23.5537
1067	23.2726
1066	22.8007
1065	22.4705
1064	22.1449
1063	21.8061
1062	21.3175
1061	20.9158
1060	20.2737
1059	20.0224
1058	19.452
1057	18.9228
1056	18.3672
1055	18.0623
1054	17.4477
1053	17.0771
1052	16.6077
1051	16.2629
1050	15.8102
1049	15.4354
1048	14.9395
1047	14.3233
1046	13.8589
1045	13.4273
1044	13.0342
1043	12.6771
1042	12.045
1041	11.7209
1040	11.3008
1039	10.7633
1038	10.4319
1037	10.0819
1036	9.74771
1035	9.30782
1034	8.82538
1033	8.50335
1032	8.27513
1031	7.71063
1030	7.56804
1029	7.20797
1028	6.88042
1027	6.67776
1026	6.23982
1025	6.01358
1024	5.55905
1023	5.28717
1022	5.04878
1021	4.79981
1020	4.62314
1019	4.40217
1018	4.23511
1017	4.03533
1016	3.66038
1015	3.49875
1014	3.34949
1013	3.00975
1012	3.09591
1011	2.72181
1010	2.60563
1009	2.40601
1008	2.31792
1007	2.1759
1006	2.00106
1005	1.95752
1004	1.88082
1003	1.71388
1002	1.5401
1001	1.43066
1000	1.30131
999	1.23086
998	1.03651
997	1.00104
996	0.989518
995	1.04023
994	0.84821
993	0.785293
992	0.531607
991	0.647253
990	0.655643
989	0.353629
988	0.514786
987	0.349261
986	0.651261
985	0.45385
984	0.300719
983	0.362464
982	0.392737
981	0.171618
980	0.24369
979	0.501067
978	0.165671
977	0.230627
976	0.0558353
975	0.052463
974	0.0685284
973	-0.0550989
972	0.123796
971	-0.0476944
970	0.0841174
969	0.0410894
968	0.0966332
967	-0.215053
966	-0.0471865
965	0.271576
964	0.064459
963	-0.0675568
962	-0.0925851
961	-0.319014
960	-0.00314952
959	-0.184627
958	0.0697192
957	-0.0347638
956	-0.178182
955	0.129415
954	0.0562639
953	0.1899
952	0.0172119
951	-0.045593
950	-0.112559
949	0.216798
948	-0.325674
947	-0.059605
946	0.215297
945	-0.00714856
944	0.0705856
943	0.0264884
942	0.0401722
941	0.0763884
940	-0.0840068
939	-0.0871864
938	0.174828
937	-0.133688
936	0.33068
935	-0.102102
934	-0.169622
933	-0.391613
932	-0.0424614
931	-0.308173
930	0.117195
929	-0.0458694
928	0.0563595
927	0.0799153
926	0.130037
925	0.318619
924	0.0466033
923	-0.10847
922	0.246275
921	-0.121053
920	-0.102149
919	-0.325264
918	-0.0595086
917	-0.294786
916	0.117092
915	-0.197734
914	-0.382241
913	0.236503
912	-0.294053
911	-0.127718
910	-0.138006
909	0.0714596
908	-0.0253263
907	-0.170448
906	-0.0363942
905	0.0489564
904	-0.101102
903	-0.462321
902	-0.161077
901	0.0294614
900	0.195596
899	0.448973
898	0.0418079
897	-0.0600702
896	0.0447303
895	-0.0339736
894	-0.202499
893	0.0596366
892	-0.196666
891	-0.125466
890	-0.122558
889	-0.0161117
888	-0.180514
887	-0.157284
886	-0.120131
885	-0.15186
884	0.20339
883	0.765726
882	0.490012
881	0.147095
880	-0.464774
879	-0.262579
878	-0.64328
877	-0.17405
876	-0.101136
875	0.52651
874	0.743187
873	1.041
872	0.857381
871	-0.508814
870	0.072751
869	-0.0228673
868	0.660294
867	-0.441082
866	0.413574
865	-0.0204563
864	0.18118
863	-0.759551
862	0.0919783
861	0.566266
860	0.3329
859	0.0207255
858	0.518509
857	0.404127
856	0.6999
855	0.104936
854	0.134951
853	0.622579
852	-0.139683
851	1.05491
850	-0.0319574
849	-0.0210338
848	-0.0126111
847	-0.00623205
846	0.00339259
845	0.00885148
844	-0.0014095
843	-0.0179928
842	-0.0240369
841	-0.03428
840	-0.0315034
839	-0.0190406
838	-0.00310816
837	0.000359851
836	0.00325294
835	-0.00464219
834	-0.0238222
833	-0.0297566
832	-0.0317891
831	-0.0286491
830	-0.0179191
829	-0.00559194
828	0.00179257
827	0.00161427
826	-0.0086251
825	-0.0266322
824	-0.0376464
823	-0.0388302
822	-0.0285516
821	-0.020781
820	-0.00826141
819	0.0043848
818	-0.00111386
817	-0.0116525
816	-0.0249055
815	-0.0402663
814	-0.0416829
813	-0.0289212
812	-0.0174729
811	-0.00549158
810	-0.00124174
809	-0.00373681
808	-0.0154279
807	-0.0279019
806	-0.0375491
805	-0.0375848
804	-0.033655
803	-0.0146024
802	-0.00150312
801	0.00328712
800	-0.00732378
799	-0.0150176
798	-0.0284866
797	-0.0369333
796	-0.0334958
795	-0.0274693
794	-0.0138021
793	0.00171741
792	0.00257406
791	-0.0054751
790	-0.0148605
789	-0.027718
788	-0.0361823
787	-0.0383025
786	-0.0304984
785	-0.0129467
784	0.000546261
783	-0.000818009
782	-0.00807097
781	-0.0201778
780	-0.0284348
779	-0.0395467
778	-0.0368946
777	-0.0292122
776	-0.0135444
775	-0.00276763
774	0.00190296
773	-0.00418996
772	-0.0205549
771	-0.0331274
770	-0.0401132
769	-0.0372079
768	-0.0248415
767	-0.0138325
766	0.000912464
765	-0.000389415
764	-0.00584344
763	-0.0260792
762	-0.036312
761	-0.0421082
760	-0.033893
759	-0.0212939
758	-0.00839686
757	-0.00264781
756	-0.00173334
755	-0.00813728
754	-0.0231692
753	-0.0346261
752	-0.0421682
751	-0.0307852
750	-0.0225656
749	-0.0103706
748	-0.00312946
747	0.000549577
746	-0.00828644
745	-0.0237787
744	-0.0355029
743	-0.0401407
742	-0.0317456
741	-0.0191264
740	-0.00544789
739	-0.0167602
738	-0.0293038
737	-0.0343352
736	-0.03629
735	-0.0316047
734	-0.0140625
733	-0.00407747
732	0.00309362
731	-0.0049414
730	-0.019238
729	-0.0321054
728	-0.0355341
727	-0.0376451
726	-0.0266788
725	-0.013967
724	-0.000130455
723	0.0027349
722	-0.00700232
721	-0.0238296
720	-0.0341533
719	-0.0391185
718	-0.0341176
717	-0.0216113
716	-0.0103669
715	-0.00217903
714	0.000322097
713	-0.00923319
712	-0.0234543
711	-0.0355382
710	-0.0384029
709	-0.0306658
708	-0.0178541
707	-0.00356636
706	0.00496819
705	-0.0041678
704	-0.0168149
703	-0.0278241
702	-0.036203
701	-0.037096
700	-0.0307989



[コメント情報]
試料名	170801 g2
オペレーター	
所属	
コメント	

[データ情報]
作成日時	2017/08/01 12:33
スタート	2300 nm
エンド	700 nm
データ間隔	1 nm
データ数	1601    

[測定情報]
機種名	V-770
シリアル番号	A034761801
測光モード	%T
UV/Vis バンド幅	1 nm
NIR バンド幅	4 nm
レスポンス	Fast
走査速度	200 nm/min
光源	自動
光源切換	340 nm
回折格子切換	850 nm
